*RAS_DATA_START
*RAS_HEADER_START
*DISP_LINE_COLOR "4294901760"
*FILE_COMMENT ""
*FILE_MD5 ""
*FILE_MEMO "Rough Coupled Scan"
*FILE_OPERATOR "7290_Tristan"
*FILE_PACKAGE_NAME "TestAuto_CollectProfile"
*FILE_PART_ID "RockingCurveMeasurement"
*FILE_SAMPLE "LAO Substrate"
*FILE_SYSTEM_NAME "SmartLabXE"
*FILE_TYPE "RAS_RAW"
*FILE_USERGROUP "StandardUsers"
*FILE_VERSION "1"
*HW_ATTACHMENT_ID "ATT0022"
*HW_ATTACHMENT_NAME "RxRy"
*HW_ATTACHMENT_NAME_INTERNAL "RxRy"
*HW_COUNTER_ID-0 "CUT0051"
*HW_COUNTER_ID-2 "CMC0020"
*HW_COUNTER_MONOCHRO_ID "CMC0020"
*HW_COUNTER_MONOCHRO_NAME "None"
*HW_COUNTER_MONOCHRO_NAME_INTERNAL "None"
*HW_COUNTER_NAME_INTERNAL "HyPix3000(H)"
*HW_COUNTER_NAME-0 "HyPix3000(H)"
*HW_COUNTER_NAME-1 "None"
*HW_COUNTER_NAME-2 "None"
*HW_COUNTER_SELECT_NAME "HyPix3000(H)"
*HW_EXTERNAL_CONTROLLER_NAME "None"
*HW_EXTERNAL_CONTROLLER_NAME_INTERNAL "None"
*HW_GONIOMETER_ID "GON0022"
*HW_GONIOMETER_NAME "StandardInplane"
*HW_GONIOMETER_NAME_INTERNAL "StandardInplaneEnc"
*HW_GONIOMETER_RADIUS-0 "90.0"
*HW_GONIOMETER_RADIUS-1 "114.0"
*HW_GONIOMETER_RADIUS-2 "173.5"
*HW_GONIOMETER_RADIUS-3 "300.0"
*HW_GONIOMETER_RADIUS-4 "187.0"
*HW_GONIOMETER_RADIUS-5 "300.0"
*HW_GONIOMETER_RADIUS-6 "113.0"
*HW_GONIOMETER_RADIUS-7 "331.0"
*HW_I_CBO_ID "CBO0021"
*HW_I_CBO_NAME "CBO"
*HW_I_CBO_NAME_INTERNAL "CBO"
*HW_I_MONOCHRO_ID "ICR0021"
*HW_I_MONOCHRO_NAME "Ge(220)x2"
*HW_I_MONOCHRO_NAME_INTERNAL "Ge(220)x2"
*HW_I_OPT_ID-1 "CBO0021"
*HW_I_PRIMARY_NAME_INTERNAL "Standard"
*HW_I_SLIT_NAME_INTERNAL "AutoIntegrated"
*HW_R_ATTENUATER_AUTOMODE "0"
*HW_R_ATTENUATER_ID "ATN0020"
*HW_R_ATTENUATER_NAME "No_unit"
*HW_R_ATTENUATOR_NAME_INTERNAL "No_unit"
*HW_R_OPT_ID-0 "RSS0022"
*HW_R_OPT_ID-1 "RCR0022"
*HW_R_OPT_ID-2 "RSO0021"
*HW_R_OPT_ID-3 "RRS0022"
*HW_R_OPT_ID-4 "ATN0020"
*HW_R_ROD_ID "RCR0022"
*HW_R_ROD_NAME "ROD_adaptor"
*HW_R_ROD_NAME_INTERNAL "ROD_adaptor"
*HW_R_RPS_ID "RSO0021"
*HW_R_RPS_NAME "RPS_adaptor"
*HW_R_RPS_NAME_INTERNAL "RPS_adaptor"
*HW_R_RS_ID "RRS0022"
*HW_R_RS_NAME "Virtual"
*HW_R_RS_NAME_INTERNAL "Virtual"
*HW_R_SS_ID "RSS0022"
*HW_R_SS_NAME "Auto_Zr"
*HW_R_SS_NAME_INTERNAL "Auto_Zr"
*HW_ROBOT_NAME "No_unit"
*HW_ROBOT_NAME_INTERNAL "No_unit"
*HW_SAMPLE_CAMERA_NAME "None"
*HW_SAMPLE_CAMERA_NAME_INTERNAL "None"
*HW_SAMPLE_HOLDER_ID "SMP0022"
*HW_SAMPLE_HOLDER_NAME "Z_Phi"
*HW_SAMPLE_HOLDER_NAME_INTERNAL "Z_Phi"
*HW_SAMPLE_NAME "WaferSample"
*HW_SAMPLE_NAME_INTERNAL "WaferSample"
*HW_SAMPLE_PLATE_NAME "ForWafer"
*HW_SAMPLE_PLATE_NAME_INTERNAL "ForWafer"
*HW_SAMPLE_SPACER_NAME "0-3mm"
*HW_SAMPLE_SPACER_NAME_INTERNAL "0-3mm"
*HW_USERINFO_CATALOG_NO ""
*HW_USERINFO_INSTRUMENT_ID ""
*HW_USERINFO_INSTRUMENT_NAME ""
*HW_USERINFO_INSTRUMENT_NO ""
*HW_USERINFO_MODEL ""
*HW_USERINFO_ORDER_NO ""
*HW_USERINFO_SERIAL_NO ""
*HW_USERINFO_VERIFY_INSTRUMENT_ID "00-07-fe-01-22-e5"
*HW_VER_RCD_COUNTER_UNIT "N/A"
*HW_VER_RCD_CPU "3.3.7"
*HW_VER_RCD_FPGA "1.2.3"
*HW_VER_RCD_GONIO_UNIT "6.3.0"
*HW_VER_RCD_INCIDENT_UNIT "6.3.0"
*HW_VER_RCD_RECEIVING_UNIT "8.0.1"
*HW_VER_RCD_TYPE "RINC"
*HW_VER_XGC_CPU "3.3.7"
*HW_VER_XGC_CW "3.0.0"
*HW_VER_XGC_HV "3.0.0"
*HW_VER_XGC_RS1 "3.0.0"
*HW_VER_XGC_RS2 "N/A"
*HW_VER_XGC_RT "N/A"
*HW_VER_XGC_TYPE "RINC"
*HW_XG_CURRENT_UNIT "mA"
*HW_XG_FOCUS "0.4mm x 8mm"
*HW_XG_FOCUS_TYPE "Fine"
*HW_XG_TARGET_ATOMIC_NUMBER "29"
*HW_XG_TARGET_NAME "Cu"
*HW_XG_TYPE "Hermetic"
*HW_XG_VOLTAGE_UNIT "kV"
*HW_XG_WAVE_LENGTH_ALPHA1 "1.540593"
*HW_XG_WAVE_LENGTH_ALPHA2 "1.544414"
*HW_XG_WAVE_LENGTH_BETA "1.392246"
*HW_XG_WAVE_LENGTH_UNIT "Angstrom"
*MEAS_COND_AXIS_NAME_INTERNAL-0 "ThetaS"
*MEAS_COND_AXIS_NAME_INTERNAL-1 "ThetaD"
*MEAS_COND_AXIS_NAME_INTERNAL-10 "PrimaryGeometry"
*MEAS_COND_AXIS_NAME_INTERNAL-100 "Version_HV"
*MEAS_COND_AXIS_NAME_INTERNAL-101 "Version_CW"
*MEAS_COND_AXIS_NAME_INTERNAL-102 "Version_RT"
*MEAS_COND_AXIS_NAME_INTERNAL-103 "IncidentPrimary"
*MEAS_COND_AXIS_NAME_INTERNAL-104 "IncidentMonochromator"
*MEAS_COND_AXIS_NAME_INTERNAL-105 "ReceivingOptics"
*MEAS_COND_AXIS_NAME_INTERNAL-106 "CounterMonochromatorKind"
*MEAS_COND_AXIS_NAME_INTERNAL-11 "PrimaryMirrorType"
*MEAS_COND_AXIS_NAME_INTERNAL-12 "CBOType"
*MEAS_COND_AXIS_NAME_INTERNAL-13 "CBO-M"
*MEAS_COND_AXIS_NAME_INTERNAL-14 "CBO"
*MEAS_COND_AXIS_NAME_INTERNAL-15 "SelectionSlitType"
*MEAS_COND_AXIS_NAME_INTERNAL-16 "IncidentMonochromator-OmegaM"
*MEAS_COND_AXIS_NAME_INTERNAL-17 "IncidentSollerSlit"
*MEAS_COND_AXIS_NAME_INTERNAL-18 "IncidentSlitBox"
*MEAS_COND_AXIS_NAME_INTERNAL-19 "IncidentSlitBox"
*MEAS_COND_AXIS_NAME_INTERNAL-2 "TwoTheta"
*MEAS_COND_AXIS_NAME_INTERNAL-20 "IncidentSlitBox"
*MEAS_COND_AXIS_NAME_INTERNAL-21 "Zs"
*MEAS_COND_AXIS_NAME_INTERNAL-22 "IncidentAxdSlit"
*MEAS_COND_AXIS_NAME_INTERNAL-23 "IncidentAxdSlit"
*MEAS_COND_AXIS_NAME_INTERNAL-24 "IncidentAxdSlit"
*MEAS_COND_AXIS_NAME_INTERNAL-25 "LLSType"
*MEAS_COND_AXIS_NAME_INTERNAL-26 "InFilter"
*MEAS_COND_AXIS_NAME_INTERNAL-27 "Z"
*MEAS_COND_AXIS_NAME_INTERNAL-28 "Phi"
*MEAS_COND_AXIS_NAME_INTERNAL-29 "Beta"
*MEAS_COND_AXIS_NAME_INTERNAL-3 "Omega"
*MEAS_COND_AXIS_NAME_INTERNAL-30 "TwoThetaChiPhi"
*MEAS_COND_AXIS_NAME_INTERNAL-31 "AlphaI"
*MEAS_COND_AXIS_NAME_INTERNAL-32 "BetaI"
*MEAS_COND_AXIS_NAME_INTERNAL-33 "TwoThetaB"
*MEAS_COND_AXIS_NAME_INTERNAL-34 "DirectBeamStop"
*MEAS_COND_AXIS_NAME_INTERNAL-35 "KnifeEdge"
*MEAS_COND_AXIS_NAME_INTERNAL-36 "Rx"
*MEAS_COND_AXIS_NAME_INTERNAL-37 "Ry"
*MEAS_COND_AXIS_NAME_INTERNAL-38 "ReceivingSlitBox1"
*MEAS_COND_AXIS_NAME_INTERNAL-39 "ReceivingSlitBox1"
*MEAS_COND_AXIS_NAME_INTERNAL-4 "TwoThetaTheta"
*MEAS_COND_AXIS_NAME_INTERNAL-40 "ReceivingSlitBox1"
*MEAS_COND_AXIS_NAME_INTERNAL-41 "Zr"
*MEAS_COND_AXIS_NAME_INTERNAL-42 "Filter"
*MEAS_COND_AXIS_NAME_INTERNAL-43 "PSA"
*MEAS_COND_AXIS_NAME_INTERNAL-44 "ReceivingSollerSlit"
*MEAS_COND_AXIS_NAME_INTERNAL-45 "ReceivingSlitBox2"
*MEAS_COND_AXIS_NAME_INTERNAL-46 "ReceivingSlitBox2"
*MEAS_COND_AXIS_NAME_INTERNAL-47 "ReceivingSlitBox2"
*MEAS_COND_AXIS_NAME_INTERNAL-48 "ModuleSensorType"
*MEAS_COND_AXIS_NAME_INTERNAL-49 "GainMode"
*MEAS_COND_AXIS_NAME_INTERNAL-5 "TwoThetaOmega"
*MEAS_COND_AXIS_NAME_INTERNAL-50 "PHA"
*MEAS_COND_AXIS_NAME_INTERNAL-51 "DetectorBeamStop"
*MEAS_COND_AXIS_NAME_INTERNAL-52 "DetectorFilter"
*MEAS_COND_AXIS_NAME_INTERNAL-53 "DedicatedHolder"
*MEAS_COND_AXIS_NAME_INTERNAL-54 "Target_TargetTime"
*MEAS_COND_AXIS_NAME_INTERNAL-55 "Target_XrayOnTime"
*MEAS_COND_AXIS_NAME_INTERNAL-56 "Target_TMPTime"
*MEAS_COND_AXIS_NAME_INTERNAL-57 "Target_RPTime"
*MEAS_COND_AXIS_NAME_INTERNAL-58 "Target_FilamentTime"
*MEAS_COND_AXIS_NAME_INTERNAL-59 "Target_IG"
*MEAS_COND_AXIS_NAME_INTERNAL-6 "OmegaTwoTheta"
*MEAS_COND_AXIS_NAME_INTERNAL-60 "Target_GP"
*MEAS_COND_AXIS_NAME_INTERNAL-61 "Target_FC"
*MEAS_COND_AXIS_NAME_INTERNAL-62 "HVPS_Bias"
*MEAS_COND_AXIS_NAME_INTERNAL-63 "HVPS_HVPSTime"
*MEAS_COND_AXIS_NAME_INTERNAL-64 "HVPS_Type1Time"
*MEAS_COND_AXIS_NAME_INTERNAL-65 "HVPS_Type2Time"
*MEAS_COND_AXIS_NAME_INTERNAL-66 "HVPS_Type3Time"
*MEAS_COND_AXIS_NAME_INTERNAL-67 "CW_IERTime"
*MEAS_COND_AXIS_NAME_INTERNAL-68 "CW_ECTime"
*MEAS_COND_AXIS_NAME_INTERNAL-69 "CW_Flow1"
*MEAS_COND_AXIS_NAME_INTERNAL-7 "TwoThetaChi"
*MEAS_COND_AXIS_NAME_INTERNAL-70 "CW_Temperature1"
*MEAS_COND_AXIS_NAME_INTERNAL-71 "CW_Pressure1"
*MEAS_COND_AXIS_NAME_INTERNAL-72 "CW_PressureIn"
*MEAS_COND_AXIS_NAME_INTERNAL-73 "CW_PressureOut"
*MEAS_COND_AXIS_NAME_INTERNAL-74 "CW_Flow2"
*MEAS_COND_AXIS_NAME_INTERNAL-75 "CW_Temperature2"
*MEAS_COND_AXIS_NAME_INTERNAL-76 "CW_Pressure2"
*MEAS_COND_AXIS_NAME_INTERNAL-77 "RE_EnclosureTemp"
*MEAS_COND_AXIS_NAME_INTERNAL-78 "RE_EnclosureHummidity"
*MEAS_COND_AXIS_NAME_INTERNAL-79 "RE_CabinetTemp"
*MEAS_COND_AXIS_NAME_INTERNAL-8 "GonioDirectBeamStop"
*MEAS_COND_AXIS_NAME_INTERNAL-80 "RE_RPTemp"
*MEAS_COND_AXIS_NAME_INTERNAL-81 "RE_ShutterAXrayOnTime"
*MEAS_COND_AXIS_NAME_INTERNAL-82 "RE_ShutterATimes"
*MEAS_COND_AXIS_NAME_INTERNAL-83 "RE_ShutterAOpenCloseTime"
*MEAS_COND_AXIS_NAME_INTERNAL-84 "RE_ShutterACloseOpenTime"
*MEAS_COND_AXIS_NAME_INTERNAL-85 "RE_ShutterBXrayOnTime"
*MEAS_COND_AXIS_NAME_INTERNAL-86 "RE_ShutterBTimes"
*MEAS_COND_AXIS_NAME_INTERNAL-87 "RE_ShutterBOpenCloseTime"
*MEAS_COND_AXIS_NAME_INTERNAL-88 "RE_ShutterBCloseOpenTime"
*MEAS_COND_AXIS_NAME_INTERNAL-89 "RE_XrayWarningRamp"
*MEAS_COND_AXIS_NAME_INTERNAL-9 "Ts"
*MEAS_COND_AXIS_NAME_INTERNAL-90 "RE_ShutterAInstallation"
*MEAS_COND_AXIS_NAME_INTERNAL-91 "RE_ShutterARamp"
*MEAS_COND_AXIS_NAME_INTERNAL-92 "RE_ShutterBInstallation"
*MEAS_COND_AXIS_NAME_INTERNAL-93 "RE_ShutterBRamp"
*MEAS_COND_AXIS_NAME_INTERNAL-94 "RE_ExtShutterCLS"
*MEAS_COND_AXIS_NAME_INTERNAL-95 "RE_ExtXrayOFF"
*MEAS_COND_AXIS_NAME_INTERNAL-96 "RE_ExtSafetyCircuit"
*MEAS_COND_AXIS_NAME_INTERNAL-97 "Version_CPU"
*MEAS_COND_AXIS_NAME_INTERNAL-98 "Version_RS1"
*MEAS_COND_AXIS_NAME_INTERNAL-99 "Version_RS2"
*MEAS_COND_AXIS_NAME-0 "ThetaS"
*MEAS_COND_AXIS_NAME-1 "ThetaD"
*MEAS_COND_AXIS_NAME-10 "PrimaryGeometry"
*MEAS_COND_AXIS_NAME-100 "Version_HV"
*MEAS_COND_AXIS_NAME-101 "Version_CW"
*MEAS_COND_AXIS_NAME-102 "Version_RT"
*MEAS_COND_AXIS_NAME-103 "IncidentPrimary"
*MEAS_COND_AXIS_NAME-104 "IncidentMonochromator"
*MEAS_COND_AXIS_NAME-105 "ReceivingOptics"
*MEAS_COND_AXIS_NAME-106 "CounterMonochromatorKind"
*MEAS_COND_AXIS_NAME-11 "PrimaryMirrorType"
*MEAS_COND_AXIS_NAME-12 "CBOType"
*MEAS_COND_AXIS_NAME-13 "CBO-M"
*MEAS_COND_AXIS_NAME-14 "CBO"
*MEAS_COND_AXIS_NAME-15 "SelectionSlitType"
*MEAS_COND_AXIS_NAME-16 "IncidentMonochromator-OmegaM"
*MEAS_COND_AXIS_NAME-17 "IncidentSollerSlit"
*MEAS_COND_AXIS_NAME-18 "IncidentSlitBox"
*MEAS_COND_AXIS_NAME-19 "IncidentSlitBox-_Axis"
*MEAS_COND_AXIS_NAME-2 "TwoTheta"
*MEAS_COND_AXIS_NAME-20 "SlitDS"
*MEAS_COND_AXIS_NAME-21 "Zs"
*MEAS_COND_AXIS_NAME-22 "IncidentAxdSlit"
*MEAS_COND_AXIS_NAME-23 "LLS"
*MEAS_COND_AXIS_NAME-24 "DHLSlit"
*MEAS_COND_AXIS_NAME-25 "LLSType"
*MEAS_COND_AXIS_NAME-26 "InFilter"
*MEAS_COND_AXIS_NAME-27 "Z"
*MEAS_COND_AXIS_NAME-28 "Phi"
*MEAS_COND_AXIS_NAME-29 "Beta"
*MEAS_COND_AXIS_NAME-3 "Omega"
*MEAS_COND_AXIS_NAME-30 "TwoThetaChiPhi"
*MEAS_COND_AXIS_NAME-31 "AlphaI"
*MEAS_COND_AXIS_NAME-32 "BetaI"
*MEAS_COND_AXIS_NAME-33 "TwoThetaB"
*MEAS_COND_AXIS_NAME-34 "DirectBeamStop"
*MEAS_COND_AXIS_NAME-35 "KnifeEdge"
*MEAS_COND_AXIS_NAME-36 "Rx"
*MEAS_COND_AXIS_NAME-37 "Ry"
*MEAS_COND_AXIS_NAME-38 "ReceivingSlitBox1"
*MEAS_COND_AXIS_NAME-39 "ReceivingSlitBox1-_Axis"
*MEAS_COND_AXIS_NAME-4 "TwoThetaTheta"
*MEAS_COND_AXIS_NAME-40 "SlitSS"
*MEAS_COND_AXIS_NAME-41 "Zr"
*MEAS_COND_AXIS_NAME-42 "Filter"
*MEAS_COND_AXIS_NAME-43 "PSA"
*MEAS_COND_AXIS_NAME-44 "ReceivingSollerSlit"
*MEAS_COND_AXIS_NAME-45 "ReceivingSlitBox2"
*MEAS_COND_AXIS_NAME-46 "ReceivingSlitBox2-_Axis"
*MEAS_COND_AXIS_NAME-47 "SlitRS"
*MEAS_COND_AXIS_NAME-48 "ModuleSensorType"
*MEAS_COND_AXIS_NAME-49 "GainMode"
*MEAS_COND_AXIS_NAME-5 "TwoThetaOmega"
*MEAS_COND_AXIS_NAME-50 "PHA"
*MEAS_COND_AXIS_NAME-51 "DetectorBeamStop"
*MEAS_COND_AXIS_NAME-52 "DetectorFilter"
*MEAS_COND_AXIS_NAME-53 "DedicatedHolder"
*MEAS_COND_AXIS_NAME-54 "Target_TargetTime"
*MEAS_COND_AXIS_NAME-55 "Target_XrayOnTime"
*MEAS_COND_AXIS_NAME-56 "Target_TMPTime"
*MEAS_COND_AXIS_NAME-57 "Target_RPTime"
*MEAS_COND_AXIS_NAME-58 "Target_FilamentTime"
*MEAS_COND_AXIS_NAME-59 "Target_IG"
*MEAS_COND_AXIS_NAME-6 "OmegaTwoTheta"
*MEAS_COND_AXIS_NAME-60 "Target_GP"
*MEAS_COND_AXIS_NAME-61 "Target_FC"
*MEAS_COND_AXIS_NAME-62 "HVPS_Bias"
*MEAS_COND_AXIS_NAME-63 "HVPS_HVPSTime"
*MEAS_COND_AXIS_NAME-64 "HVPS_Type1Time"
*MEAS_COND_AXIS_NAME-65 "HVPS_Type2Time"
*MEAS_COND_AXIS_NAME-66 "HVPS_Type3Time"
*MEAS_COND_AXIS_NAME-67 "CW_IERTime"
*MEAS_COND_AXIS_NAME-68 "CW_ECTime"
*MEAS_COND_AXIS_NAME-69 "CW_Flow1"
*MEAS_COND_AXIS_NAME-7 "TwoThetaChi"
*MEAS_COND_AXIS_NAME-70 "CW_Temperature1"
*MEAS_COND_AXIS_NAME-71 "CW_Pressure1"
*MEAS_COND_AXIS_NAME-72 "CW_PressureIn"
*MEAS_COND_AXIS_NAME-73 "CW_PressureOut"
*MEAS_COND_AXIS_NAME-74 "CW_Flow2"
*MEAS_COND_AXIS_NAME-75 "CW_Temperature2"
*MEAS_COND_AXIS_NAME-76 "CW_Pressure2"
*MEAS_COND_AXIS_NAME-77 "RE_EnclosureTemp"
*MEAS_COND_AXIS_NAME-78 "RE_EnclosureHummidity"
*MEAS_COND_AXIS_NAME-79 "RE_CabinetTemp"
*MEAS_COND_AXIS_NAME-8 "GonioDirectBeamStop"
*MEAS_COND_AXIS_NAME-80 "RE_RPTemp"
*MEAS_COND_AXIS_NAME-81 "RE_ShutterAXrayOnTime"
*MEAS_COND_AXIS_NAME-82 "RE_ShutterATimes"
*MEAS_COND_AXIS_NAME-83 "RE_ShutterAOpenCloseTime"
*MEAS_COND_AXIS_NAME-84 "RE_ShutterACloseOpenTime"
*MEAS_COND_AXIS_NAME-85 "RE_ShutterBXrayOnTime"
*MEAS_COND_AXIS_NAME-86 "RE_ShutterBTimes"
*MEAS_COND_AXIS_NAME-87 "RE_ShutterBOpenCloseTime"
*MEAS_COND_AXIS_NAME-88 "RE_ShutterBCloseOpenTime"
*MEAS_COND_AXIS_NAME-89 "RE_XrayWarningRamp"
*MEAS_COND_AXIS_NAME-9 "Ts"
*MEAS_COND_AXIS_NAME-90 "RE_ShutterAInstallation"
*MEAS_COND_AXIS_NAME-91 "RE_ShutterARamp"
*MEAS_COND_AXIS_NAME-92 "RE_ShutterBInstallation"
*MEAS_COND_AXIS_NAME-93 "RE_ShutterBRamp"
*MEAS_COND_AXIS_NAME-94 "RE_ExtShutterCLS"
*MEAS_COND_AXIS_NAME-95 "RE_ExtXrayOFF"
*MEAS_COND_AXIS_NAME-96 "RE_ExtSafetyCircuit"
*MEAS_COND_AXIS_NAME-97 "Version_CPU"
*MEAS_COND_AXIS_NAME-98 "Version_RS1"
*MEAS_COND_AXIS_NAME-99 "Version_RS2"
*MEAS_COND_AXIS_OFFSET-0 "0.9267"
*MEAS_COND_AXIS_OFFSET-1 "0.2322"
*MEAS_COND_AXIS_OFFSET-10 "0"
*MEAS_COND_AXIS_OFFSET-100 "0"
*MEAS_COND_AXIS_OFFSET-101 "0"
*MEAS_COND_AXIS_OFFSET-102 "0"
*MEAS_COND_AXIS_OFFSET-103 "0"
*MEAS_COND_AXIS_OFFSET-104 "0"
*MEAS_COND_AXIS_OFFSET-105 "0"
*MEAS_COND_AXIS_OFFSET-106 "0"
*MEAS_COND_AXIS_OFFSET-11 "0"
*MEAS_COND_AXIS_OFFSET-12 "0"
*MEAS_COND_AXIS_OFFSET-13 "0"
*MEAS_COND_AXIS_OFFSET-14 "0"
*MEAS_COND_AXIS_OFFSET-15 "0"
*MEAS_COND_AXIS_OFFSET-16 "0"
*MEAS_COND_AXIS_OFFSET-17 "0"
*MEAS_COND_AXIS_OFFSET-18 "0"
*MEAS_COND_AXIS_OFFSET-19 "0"
*MEAS_COND_AXIS_OFFSET-2 "1.1589"
*MEAS_COND_AXIS_OFFSET-20 "0"
*MEAS_COND_AXIS_OFFSET-21 "0"
*MEAS_COND_AXIS_OFFSET-22 "0"
*MEAS_COND_AXIS_OFFSET-23 "0"
*MEAS_COND_AXIS_OFFSET-24 "0"
*MEAS_COND_AXIS_OFFSET-25 "0"
*MEAS_COND_AXIS_OFFSET-26 "0"
*MEAS_COND_AXIS_OFFSET-27 "0"
*MEAS_COND_AXIS_OFFSET-28 "0"
*MEAS_COND_AXIS_OFFSET-29 "0"
*MEAS_COND_AXIS_OFFSET-3 "0.9267"
*MEAS_COND_AXIS_OFFSET-30 "0"
*MEAS_COND_AXIS_OFFSET-31 "0"
*MEAS_COND_AXIS_OFFSET-32 "0"
*MEAS_COND_AXIS_OFFSET-33 "0"
*MEAS_COND_AXIS_OFFSET-34 "0"
*MEAS_COND_AXIS_OFFSET-35 "0"
*MEAS_COND_AXIS_OFFSET-36 "0"
*MEAS_COND_AXIS_OFFSET-37 "0"
*MEAS_COND_AXIS_OFFSET-38 "0"
*MEAS_COND_AXIS_OFFSET-39 "0"
*MEAS_COND_AXIS_OFFSET-4 "0"
*MEAS_COND_AXIS_OFFSET-40 "0"
*MEAS_COND_AXIS_OFFSET-41 "0"
*MEAS_COND_AXIS_OFFSET-42 "0"
*MEAS_COND_AXIS_OFFSET-43 "0"
*MEAS_COND_AXIS_OFFSET-44 "0"
*MEAS_COND_AXIS_OFFSET-45 "0"
*MEAS_COND_AXIS_OFFSET-46 "0"
*MEAS_COND_AXIS_OFFSET-47 "0"
*MEAS_COND_AXIS_OFFSET-48 "0"
*MEAS_COND_AXIS_OFFSET-49 "0"
*MEAS_COND_AXIS_OFFSET-5 "0"
*MEAS_COND_AXIS_OFFSET-50 "0"
*MEAS_COND_AXIS_OFFSET-51 "0"
*MEAS_COND_AXIS_OFFSET-52 "0"
*MEAS_COND_AXIS_OFFSET-53 "0"
*MEAS_COND_AXIS_OFFSET-54 "0"
*MEAS_COND_AXIS_OFFSET-55 "0"
*MEAS_COND_AXIS_OFFSET-56 "0"
*MEAS_COND_AXIS_OFFSET-57 "0"
*MEAS_COND_AXIS_OFFSET-58 "0"
*MEAS_COND_AXIS_OFFSET-59 "0"
*MEAS_COND_AXIS_OFFSET-6 "0"
*MEAS_COND_AXIS_OFFSET-60 "0"
*MEAS_COND_AXIS_OFFSET-61 "0"
*MEAS_COND_AXIS_OFFSET-62 "0"
*MEAS_COND_AXIS_OFFSET-63 "0"
*MEAS_COND_AXIS_OFFSET-64 "0"
*MEAS_COND_AXIS_OFFSET-65 "0"
*MEAS_COND_AXIS_OFFSET-66 "0"
*MEAS_COND_AXIS_OFFSET-67 "0"
*MEAS_COND_AXIS_OFFSET-68 "0"
*MEAS_COND_AXIS_OFFSET-69 "0"
*MEAS_COND_AXIS_OFFSET-7 "0"
*MEAS_COND_AXIS_OFFSET-70 "0"
*MEAS_COND_AXIS_OFFSET-71 "0"
*MEAS_COND_AXIS_OFFSET-72 "0"
*MEAS_COND_AXIS_OFFSET-73 "0"
*MEAS_COND_AXIS_OFFSET-74 "0"
*MEAS_COND_AXIS_OFFSET-75 "0"
*MEAS_COND_AXIS_OFFSET-76 "0"
*MEAS_COND_AXIS_OFFSET-77 "0"
*MEAS_COND_AXIS_OFFSET-78 "0"
*MEAS_COND_AXIS_OFFSET-79 "0"
*MEAS_COND_AXIS_OFFSET-8 "0"
*MEAS_COND_AXIS_OFFSET-80 "0"
*MEAS_COND_AXIS_OFFSET-81 "0"
*MEAS_COND_AXIS_OFFSET-82 "0"
*MEAS_COND_AXIS_OFFSET-83 "0"
*MEAS_COND_AXIS_OFFSET-84 "0"
*MEAS_COND_AXIS_OFFSET-85 "0"
*MEAS_COND_AXIS_OFFSET-86 "0"
*MEAS_COND_AXIS_OFFSET-87 "0"
*MEAS_COND_AXIS_OFFSET-88 "0"
*MEAS_COND_AXIS_OFFSET-89 "0"
*MEAS_COND_AXIS_OFFSET-9 "0"
*MEAS_COND_AXIS_OFFSET-90 "0"
*MEAS_COND_AXIS_OFFSET-91 "0"
*MEAS_COND_AXIS_OFFSET-92 "0"
*MEAS_COND_AXIS_OFFSET-93 "0"
*MEAS_COND_AXIS_OFFSET-94 "0"
*MEAS_COND_AXIS_OFFSET-95 "0"
*MEAS_COND_AXIS_OFFSET-96 "0"
*MEAS_COND_AXIS_OFFSET-97 "0"
*MEAS_COND_AXIS_OFFSET-98 "0"
*MEAS_COND_AXIS_OFFSET-99 "0"
*MEAS_COND_AXIS_POSITION-0 "0.0000"
*MEAS_COND_AXIS_POSITION-1 "0.0000"
*MEAS_COND_AXIS_POSITION-10 "Right"
*MEAS_COND_AXIS_POSITION-103 "Standard"
*MEAS_COND_AXIS_POSITION-104 "Ge(220)x2"
*MEAS_COND_AXIS_POSITION-105 "PSA_open"
*MEAS_COND_AXIS_POSITION-106 "None"
*MEAS_COND_AXIS_POSITION-11 "None"
*MEAS_COND_AXIS_POSITION-12 "Type2"
*MEAS_COND_AXIS_POSITION-13 "0"
*MEAS_COND_AXIS_POSITION-14 "PB"
*MEAS_COND_AXIS_POSITION-15 "Type1"
*MEAS_COND_AXIS_POSITION-16 "0"
*MEAS_COND_AXIS_POSITION-17 "Soller_slit_open_s"
*MEAS_COND_AXIS_POSITION-18 "1.000mm"
*MEAS_COND_AXIS_POSITION-19 "1.000000"
*MEAS_COND_AXIS_POSITION-2 "0.0000"
*MEAS_COND_AXIS_POSITION-20 "1.000mm"
*MEAS_COND_AXIS_POSITION-21 "-0.2378125"
*MEAS_COND_AXIS_POSITION-22 "10mm"
*MEAS_COND_AXIS_POSITION-23 "10mm"
*MEAS_COND_AXIS_POSITION-24 "10mm"
*MEAS_COND_AXIS_POSITION-25 "Type1"
*MEAS_COND_AXIS_POSITION-26 "None"
*MEAS_COND_AXIS_POSITION-27 "-1.68144"
*MEAS_COND_AXIS_POSITION-28 "0.000"
*MEAS_COND_AXIS_POSITION-29 "0.000"
*MEAS_COND_AXIS_POSITION-3 "0.0000"
*MEAS_COND_AXIS_POSITION-30 "0.000"
*MEAS_COND_AXIS_POSITION-31 "90.00"
*MEAS_COND_AXIS_POSITION-32 "0.000"
*MEAS_COND_AXIS_POSITION-33 "0.0000"
*MEAS_COND_AXIS_POSITION-34 "Out"
*MEAS_COND_AXIS_POSITION-35 "None"
*MEAS_COND_AXIS_POSITION-36 "0.02178"
*MEAS_COND_AXIS_POSITION-37 "0.07236"
*MEAS_COND_AXIS_POSITION-38 "1.000mm"
*MEAS_COND_AXIS_POSITION-39 "1.000000"
*MEAS_COND_AXIS_POSITION-4 "0.0000"
*MEAS_COND_AXIS_POSITION-40 "1.000mm"
*MEAS_COND_AXIS_POSITION-41 "-0.4025000"
*MEAS_COND_AXIS_POSITION-42 "None"
*MEAS_COND_AXIS_POSITION-43 "PSA_open"
*MEAS_COND_AXIS_POSITION-44 "None"
*MEAS_COND_AXIS_POSITION-45 "1.100mm"
*MEAS_COND_AXIS_POSITION-46 "1.1"
*MEAS_COND_AXIS_POSITION-47 "1.100mm"
*MEAS_COND_AXIS_POSITION-48 "AC"
*MEAS_COND_AXIS_POSITION-49 "Mo-HiC"
*MEAS_COND_AXIS_POSITION-5 "0.0000"
*MEAS_COND_AXIS_POSITION-51 "None"
*MEAS_COND_AXIS_POSITION-52 "None"
*MEAS_COND_AXIS_POSITION-53 "None"
*MEAS_COND_AXIS_POSITION-6 "0.0000"
*MEAS_COND_AXIS_POSITION-7 "0.0000"
*MEAS_COND_AXIS_POSITION-8 "Out"
*MEAS_COND_AXIS_POSITION-9 "-5.8424375"
*MEAS_COND_AXIS_RESOLUTION-0 "0.0001"
*MEAS_COND_AXIS_RESOLUTION-1 "0.0001"
*MEAS_COND_AXIS_RESOLUTION-10 ""
*MEAS_COND_AXIS_RESOLUTION-100 "1.000000"
*MEAS_COND_AXIS_RESOLUTION-101 "1.000000"
*MEAS_COND_AXIS_RESOLUTION-102 "1.000000"
*MEAS_COND_AXIS_RESOLUTION-11 ""
*MEAS_COND_AXIS_RESOLUTION-12 ""
*MEAS_COND_AXIS_RESOLUTION-13 "1"
*MEAS_COND_AXIS_RESOLUTION-14 ""
*MEAS_COND_AXIS_RESOLUTION-15 ""
*MEAS_COND_AXIS_RESOLUTION-16 "1"
*MEAS_COND_AXIS_RESOLUTION-17 ""
*MEAS_COND_AXIS_RESOLUTION-18 "1/1600"
*MEAS_COND_AXIS_RESOLUTION-19 "1/1600"
*MEAS_COND_AXIS_RESOLUTION-2 "0.0001"
*MEAS_COND_AXIS_RESOLUTION-20 "1/1600"
*MEAS_COND_AXIS_RESOLUTION-21 "0.0003125"
*MEAS_COND_AXIS_RESOLUTION-22 ""
*MEAS_COND_AXIS_RESOLUTION-23 ""
*MEAS_COND_AXIS_RESOLUTION-24 ""
*MEAS_COND_AXIS_RESOLUTION-25 ""
*MEAS_COND_AXIS_RESOLUTION-26 ""
*MEAS_COND_AXIS_RESOLUTION-27 "0.00002"
*MEAS_COND_AXIS_RESOLUTION-28 "0.002"
*MEAS_COND_AXIS_RESOLUTION-29 "0.002"
*MEAS_COND_AXIS_RESOLUTION-3 "0.0001"
*MEAS_COND_AXIS_RESOLUTION-30 "0.004"
*MEAS_COND_AXIS_RESOLUTION-31 "0.01"
*MEAS_COND_AXIS_RESOLUTION-32 "0.002"
*MEAS_COND_AXIS_RESOLUTION-33 "0.0001"
*MEAS_COND_AXIS_RESOLUTION-34 ""
*MEAS_COND_AXIS_RESOLUTION-35 ""
*MEAS_COND_AXIS_RESOLUTION-36 "0.00099"
*MEAS_COND_AXIS_RESOLUTION-37 "0.00134"
*MEAS_COND_AXIS_RESOLUTION-38 "1/1600"
*MEAS_COND_AXIS_RESOLUTION-39 "1/1600"
*MEAS_COND_AXIS_RESOLUTION-4 "0.0002"
*MEAS_COND_AXIS_RESOLUTION-40 "1/1600"
*MEAS_COND_AXIS_RESOLUTION-41 "0.0003125"
*MEAS_COND_AXIS_RESOLUTION-42 ""
*MEAS_COND_AXIS_RESOLUTION-43 ""
*MEAS_COND_AXIS_RESOLUTION-44 ""
*MEAS_COND_AXIS_RESOLUTION-45 "0.1"
*MEAS_COND_AXIS_RESOLUTION-46 "0.1"
*MEAS_COND_AXIS_RESOLUTION-47 "0.1"
*MEAS_COND_AXIS_RESOLUTION-48 ""
*MEAS_COND_AXIS_RESOLUTION-49 ""
*MEAS_COND_AXIS_RESOLUTION-5 "0.0002"
*MEAS_COND_AXIS_RESOLUTION-50 "1"
*MEAS_COND_AXIS_RESOLUTION-51 ""
*MEAS_COND_AXIS_RESOLUTION-52 ""
*MEAS_COND_AXIS_RESOLUTION-53 ""
*MEAS_COND_AXIS_RESOLUTION-54 "0.01"
*MEAS_COND_AXIS_RESOLUTION-55 "0.010000"
*MEAS_COND_AXIS_RESOLUTION-56 "0.01"
*MEAS_COND_AXIS_RESOLUTION-57 "0.01"
*MEAS_COND_AXIS_RESOLUTION-58 "0.01"
*MEAS_COND_AXIS_RESOLUTION-59 "1"
*MEAS_COND_AXIS_RESOLUTION-6 "0.0001"
*MEAS_COND_AXIS_RESOLUTION-60 "1"
*MEAS_COND_AXIS_RESOLUTION-61 "1"
*MEAS_COND_AXIS_RESOLUTION-62 "1"
*MEAS_COND_AXIS_RESOLUTION-63 "0.01"
*MEAS_COND_AXIS_RESOLUTION-64 "0.01"
*MEAS_COND_AXIS_RESOLUTION-65 "0.01"
*MEAS_COND_AXIS_RESOLUTION-66 "0.01"
*MEAS_COND_AXIS_RESOLUTION-67 "0.010000"
*MEAS_COND_AXIS_RESOLUTION-68 "1"
*MEAS_COND_AXIS_RESOLUTION-69 "0.100000"
*MEAS_COND_AXIS_RESOLUTION-7 "0.0005"
*MEAS_COND_AXIS_RESOLUTION-70 "1.000000"
*MEAS_COND_AXIS_RESOLUTION-71 "0.010000"
*MEAS_COND_AXIS_RESOLUTION-72 "0.01"
*MEAS_COND_AXIS_RESOLUTION-73 "0.01"
*MEAS_COND_AXIS_RESOLUTION-74 "0.1"
*MEAS_COND_AXIS_RESOLUTION-75 "1"
*MEAS_COND_AXIS_RESOLUTION-76 "0.01"
*MEAS_COND_AXIS_RESOLUTION-77 "1.000000"
*MEAS_COND_AXIS_RESOLUTION-78 "1"
*MEAS_COND_AXIS_RESOLUTION-79 "1.000000"
*MEAS_COND_AXIS_RESOLUTION-8 ""
*MEAS_COND_AXIS_RESOLUTION-80 "1"
*MEAS_COND_AXIS_RESOLUTION-81 "0.01"
*MEAS_COND_AXIS_RESOLUTION-82 "1"
*MEAS_COND_AXIS_RESOLUTION-83 "1"
*MEAS_COND_AXIS_RESOLUTION-84 "1"
*MEAS_COND_AXIS_RESOLUTION-85 "0.01"
*MEAS_COND_AXIS_RESOLUTION-86 "1.000000"
*MEAS_COND_AXIS_RESOLUTION-87 "1.000000"
*MEAS_COND_AXIS_RESOLUTION-88 "1.000000"
*MEAS_COND_AXIS_RESOLUTION-89 "-"
*MEAS_COND_AXIS_RESOLUTION-9 "0.0000625"
*MEAS_COND_AXIS_RESOLUTION-90 "-"
*MEAS_COND_AXIS_RESOLUTION-91 "-"
*MEAS_COND_AXIS_RESOLUTION-92 "1.000000"
*MEAS_COND_AXIS_RESOLUTION-93 "-"
*MEAS_COND_AXIS_RESOLUTION-94 "-"
*MEAS_COND_AXIS_RESOLUTION-95 "-"
*MEAS_COND_AXIS_RESOLUTION-96 "1.000000"
*MEAS_COND_AXIS_RESOLUTION-97 "1.000000"
*MEAS_COND_AXIS_RESOLUTION-98 "1.000000"
*MEAS_COND_AXIS_RESOLUTION-99 "1.000000"
*MEAS_COND_AXIS_STATE-0 "Fixed"
*MEAS_COND_AXIS_STATE-1 "Fixed"
*MEAS_COND_AXIS_STATE-10 "Fixed"
*MEAS_COND_AXIS_STATE-100 "Fixed"
*MEAS_COND_AXIS_STATE-101 "Fixed"
*MEAS_COND_AXIS_STATE-102 "Fixed"
*MEAS_COND_AXIS_STATE-11 "Fixed"
*MEAS_COND_AXIS_STATE-12 "Fixed"
*MEAS_COND_AXIS_STATE-13 "Fixed"
*MEAS_COND_AXIS_STATE-14 "Fixed"
*MEAS_COND_AXIS_STATE-15 "Fixed"
*MEAS_COND_AXIS_STATE-16 "Fixed"
*MEAS_COND_AXIS_STATE-17 "Fixed"
*MEAS_COND_AXIS_STATE-18 "Fixed"
*MEAS_COND_AXIS_STATE-19 "Fixed"
*MEAS_COND_AXIS_STATE-2 "Fixed"
*MEAS_COND_AXIS_STATE-20 "Fixed"
*MEAS_COND_AXIS_STATE-21 "Fixed"
*MEAS_COND_AXIS_STATE-22 "Fixed"
*MEAS_COND_AXIS_STATE-23 "Fixed"
*MEAS_COND_AXIS_STATE-24 "Fixed"
*MEAS_COND_AXIS_STATE-25 "Fixed"
*MEAS_COND_AXIS_STATE-26 "Fixed"
*MEAS_COND_AXIS_STATE-27 "Fixed"
*MEAS_COND_AXIS_STATE-28 "Fixed"
*MEAS_COND_AXIS_STATE-29 "Fixed"
*MEAS_COND_AXIS_STATE-3 "Fixed"
*MEAS_COND_AXIS_STATE-30 "Fixed"
*MEAS_COND_AXIS_STATE-31 "Fixed"
*MEAS_COND_AXIS_STATE-32 "Fixed"
*MEAS_COND_AXIS_STATE-33 "Fixed"
*MEAS_COND_AXIS_STATE-34 "Fixed"
*MEAS_COND_AXIS_STATE-35 "Fixed"
*MEAS_COND_AXIS_STATE-36 "Fixed"
*MEAS_COND_AXIS_STATE-37 "Fixed"
*MEAS_COND_AXIS_STATE-38 "Fixed"
*MEAS_COND_AXIS_STATE-39 "Fixed"
*MEAS_COND_AXIS_STATE-4 "Fixed"
*MEAS_COND_AXIS_STATE-40 "Fixed"
*MEAS_COND_AXIS_STATE-41 "Fixed"
*MEAS_COND_AXIS_STATE-42 "Fixed"
*MEAS_COND_AXIS_STATE-43 "Fixed"
*MEAS_COND_AXIS_STATE-44 "Fixed"
*MEAS_COND_AXIS_STATE-45 "Fixed"
*MEAS_COND_AXIS_STATE-46 "Fixed"
*MEAS_COND_AXIS_STATE-47 "Fixed"
*MEAS_COND_AXIS_STATE-48 "Fixed"
*MEAS_COND_AXIS_STATE-49 "Fixed"
*MEAS_COND_AXIS_STATE-5 "Scan"
*MEAS_COND_AXIS_STATE-50 "Fixed"
*MEAS_COND_AXIS_STATE-51 "Fixed"
*MEAS_COND_AXIS_STATE-52 "Fixed"
*MEAS_COND_AXIS_STATE-53 "Fixed"
*MEAS_COND_AXIS_STATE-54 "Fixed"
*MEAS_COND_AXIS_STATE-55 "Fixed"
*MEAS_COND_AXIS_STATE-56 "Fixed"
*MEAS_COND_AXIS_STATE-57 "Fixed"
*MEAS_COND_AXIS_STATE-58 "Fixed"
*MEAS_COND_AXIS_STATE-59 "Fixed"
*MEAS_COND_AXIS_STATE-6 "Fixed"
*MEAS_COND_AXIS_STATE-60 "Fixed"
*MEAS_COND_AXIS_STATE-61 "Fixed"
*MEAS_COND_AXIS_STATE-62 "Fixed"
*MEAS_COND_AXIS_STATE-63 "Fixed"
*MEAS_COND_AXIS_STATE-64 "Fixed"
*MEAS_COND_AXIS_STATE-65 "Fixed"
*MEAS_COND_AXIS_STATE-66 "Fixed"
*MEAS_COND_AXIS_STATE-67 "Fixed"
*MEAS_COND_AXIS_STATE-68 "Fixed"
*MEAS_COND_AXIS_STATE-69 "Fixed"
*MEAS_COND_AXIS_STATE-7 "Fixed"
*MEAS_COND_AXIS_STATE-70 "Fixed"
*MEAS_COND_AXIS_STATE-71 "Fixed"
*MEAS_COND_AXIS_STATE-72 "Fixed"
*MEAS_COND_AXIS_STATE-73 "Fixed"
*MEAS_COND_AXIS_STATE-74 "Fixed"
*MEAS_COND_AXIS_STATE-75 "Fixed"
*MEAS_COND_AXIS_STATE-76 "Fixed"
*MEAS_COND_AXIS_STATE-77 "Fixed"
*MEAS_COND_AXIS_STATE-78 "Fixed"
*MEAS_COND_AXIS_STATE-79 "Fixed"
*MEAS_COND_AXIS_STATE-8 "Fixed"
*MEAS_COND_AXIS_STATE-80 "Fixed"
*MEAS_COND_AXIS_STATE-81 "Fixed"
*MEAS_COND_AXIS_STATE-82 "Fixed"
*MEAS_COND_AXIS_STATE-83 "Fixed"
*MEAS_COND_AXIS_STATE-84 "Fixed"
*MEAS_COND_AXIS_STATE-85 "Fixed"
*MEAS_COND_AXIS_STATE-86 "Fixed"
*MEAS_COND_AXIS_STATE-87 "Fixed"
*MEAS_COND_AXIS_STATE-88 "Fixed"
*MEAS_COND_AXIS_STATE-89 "Fixed"
*MEAS_COND_AXIS_STATE-9 "Fixed"
*MEAS_COND_AXIS_STATE-90 "Fixed"
*MEAS_COND_AXIS_STATE-91 "Fixed"
*MEAS_COND_AXIS_STATE-92 "Fixed"
*MEAS_COND_AXIS_STATE-93 "Fixed"
*MEAS_COND_AXIS_STATE-94 "Fixed"
*MEAS_COND_AXIS_STATE-95 "Fixed"
*MEAS_COND_AXIS_STATE-96 "Fixed"
*MEAS_COND_AXIS_STATE-97 "Fixed"
*MEAS_COND_AXIS_STATE-98 "Fixed"
*MEAS_COND_AXIS_STATE-99 "Fixed"
*MEAS_COND_AXIS_UNIT-0 "deg"
*MEAS_COND_AXIS_UNIT-1 "deg"
*MEAS_COND_AXIS_UNIT-10 ""
*MEAS_COND_AXIS_UNIT-100 ""
*MEAS_COND_AXIS_UNIT-101 ""
*MEAS_COND_AXIS_UNIT-102 ""
*MEAS_COND_AXIS_UNIT-103 ""
*MEAS_COND_AXIS_UNIT-104 ""
*MEAS_COND_AXIS_UNIT-105 ""
*MEAS_COND_AXIS_UNIT-106 ""
*MEAS_COND_AXIS_UNIT-11 ""
*MEAS_COND_AXIS_UNIT-12 ""
*MEAS_COND_AXIS_UNIT-13 "pulse"
*MEAS_COND_AXIS_UNIT-14 ""
*MEAS_COND_AXIS_UNIT-15 ""
*MEAS_COND_AXIS_UNIT-16 "pulse"
*MEAS_COND_AXIS_UNIT-17 ""
*MEAS_COND_AXIS_UNIT-18 ""
*MEAS_COND_AXIS_UNIT-19 "mm"
*MEAS_COND_AXIS_UNIT-2 "deg"
*MEAS_COND_AXIS_UNIT-20 ""
*MEAS_COND_AXIS_UNIT-21 "mm"
*MEAS_COND_AXIS_UNIT-22 ""
*MEAS_COND_AXIS_UNIT-23 ""
*MEAS_COND_AXIS_UNIT-24 ""
*MEAS_COND_AXIS_UNIT-25 ""
*MEAS_COND_AXIS_UNIT-26 ""
*MEAS_COND_AXIS_UNIT-27 "mm"
*MEAS_COND_AXIS_UNIT-28 "deg"
*MEAS_COND_AXIS_UNIT-29 "deg"
*MEAS_COND_AXIS_UNIT-3 "deg"
*MEAS_COND_AXIS_UNIT-30 "deg"
*MEAS_COND_AXIS_UNIT-31 "deg"
*MEAS_COND_AXIS_UNIT-32 "deg"
*MEAS_COND_AXIS_UNIT-33 "deg"
*MEAS_COND_AXIS_UNIT-34 ""
*MEAS_COND_AXIS_UNIT-35 ""
*MEAS_COND_AXIS_UNIT-36 "deg"
*MEAS_COND_AXIS_UNIT-37 "deg"
*MEAS_COND_AXIS_UNIT-38 ""
*MEAS_COND_AXIS_UNIT-39 "mm"
*MEAS_COND_AXIS_UNIT-4 "deg"
*MEAS_COND_AXIS_UNIT-40 ""
*MEAS_COND_AXIS_UNIT-41 "mm"
*MEAS_COND_AXIS_UNIT-42 ""
*MEAS_COND_AXIS_UNIT-43 ""
*MEAS_COND_AXIS_UNIT-44 ""
*MEAS_COND_AXIS_UNIT-45 ""
*MEAS_COND_AXIS_UNIT-46 "mm"
*MEAS_COND_AXIS_UNIT-47 ""
*MEAS_COND_AXIS_UNIT-48 ""
*MEAS_COND_AXIS_UNIT-49 ""
*MEAS_COND_AXIS_UNIT-5 "deg"
*MEAS_COND_AXIS_UNIT-50 "keV"
*MEAS_COND_AXIS_UNIT-51 ""
*MEAS_COND_AXIS_UNIT-52 ""
*MEAS_COND_AXIS_UNIT-53 ""
*MEAS_COND_AXIS_UNIT-54 "H"
*MEAS_COND_AXIS_UNIT-55 "H"
*MEAS_COND_AXIS_UNIT-56 "H"
*MEAS_COND_AXIS_UNIT-57 "H"
*MEAS_COND_AXIS_UNIT-58 "H"
*MEAS_COND_AXIS_UNIT-59 "mV"
*MEAS_COND_AXIS_UNIT-6 "deg"
*MEAS_COND_AXIS_UNIT-60 "V"
*MEAS_COND_AXIS_UNIT-61 "V"
*MEAS_COND_AXIS_UNIT-62 "V"
*MEAS_COND_AXIS_UNIT-63 "H"
*MEAS_COND_AXIS_UNIT-64 "H"
*MEAS_COND_AXIS_UNIT-65 "H"
*MEAS_COND_AXIS_UNIT-66 "H"
*MEAS_COND_AXIS_UNIT-67 "H"
*MEAS_COND_AXIS_UNIT-68 "uS/m"
*MEAS_COND_AXIS_UNIT-69 "L/min"
*MEAS_COND_AXIS_UNIT-7 "deg"
*MEAS_COND_AXIS_UNIT-70 "degree"
*MEAS_COND_AXIS_UNIT-71 "MPa"
*MEAS_COND_AXIS_UNIT-72 "MPa"
*MEAS_COND_AXIS_UNIT-73 "MPa"
*MEAS_COND_AXIS_UNIT-74 "L/min"
*MEAS_COND_AXIS_UNIT-75 "C"
*MEAS_COND_AXIS_UNIT-76 "MPa"
*MEAS_COND_AXIS_UNIT-77 "degree"
*MEAS_COND_AXIS_UNIT-78 "percent"
*MEAS_COND_AXIS_UNIT-79 "degree"
*MEAS_COND_AXIS_UNIT-8 ""
*MEAS_COND_AXIS_UNIT-80 "C"
*MEAS_COND_AXIS_UNIT-81 "H"
*MEAS_COND_AXIS_UNIT-82 "time"
*MEAS_COND_AXIS_UNIT-83 "msec"
*MEAS_COND_AXIS_UNIT-84 "msec"
*MEAS_COND_AXIS_UNIT-85 "H"
*MEAS_COND_AXIS_UNIT-86 "times"
*MEAS_COND_AXIS_UNIT-87 "msec"
*MEAS_COND_AXIS_UNIT-88 "msec"
*MEAS_COND_AXIS_UNIT-89 "-"
*MEAS_COND_AXIS_UNIT-9 "mm"
*MEAS_COND_AXIS_UNIT-90 "-"
*MEAS_COND_AXIS_UNIT-91 "-"
*MEAS_COND_AXIS_UNIT-92 ""
*MEAS_COND_AXIS_UNIT-93 "-"
*MEAS_COND_AXIS_UNIT-94 "-"
*MEAS_COND_AXIS_UNIT-95 "-"
*MEAS_COND_AXIS_UNIT-96 ""
*MEAS_COND_AXIS_UNIT-97 ""
*MEAS_COND_AXIS_UNIT-98 ""
*MEAS_COND_AXIS_UNIT-99 ""
*MEAS_COND_COUNTER_CENTER_X "382.5"
*MEAS_COND_COUNTER_CENTER_Y "197.5"
*MEAS_COND_COUNTER_COUNTMODE "Long"
*MEAS_COND_COUNTER_DEADTIMECORRECTION "Enabled"
*MEAS_COND_COUNTER_DISTANCE "300"
*MEAS_COND_COUNTER_ENERGYMODE "Standard"
*MEAS_COND_COUNTER_INTEGRALMODE "Line"
*MEAS_COND_COUNTER_PHA_UNIT "keV"
*MEAS_COND_COUNTER_PHABASE "6.0"
*MEAS_COND_COUNTER_PHAWINDOW "4.0"
*MEAS_COND_COUNTER_PITCH_X "0.1"
*MEAS_COND_COUNTER_PITCH_Y "0.1"
*MEAS_COND_COUNTER_PITCHUNIT "mm"
*MEAS_COND_COUNTER_VALIDWIDTH_X "200"
*MEAS_COND_COUNTER_VALIDWIDTH_Y "11"
*MEAS_COND_OPT_ATTR "PB-Ge(220)x2"
*MEAS_COND_OPT_NAME "User defined settings"
*MEAS_COND_XG_CURRENT "45"
*MEAS_COND_XG_VOLTAGE "40"
*MEAS_COND_XG_WAVE_TYPE "Ka1"
*MEAS_DATA_COUNT "4501"
*MEAS_SCAN_AXIS_X "TwoThetaOmega"
*MEAS_SCAN_AXIS_X_INTERNAL "TwoThetaOmega"
*MEAS_SCAN_END_TIME "09/03/2021 18:34:09"
*MEAS_SCAN_MODE "CONTINUOUS"
*MEAS_SCAN_MODE_INTERNAL "CONTINUOUS"
*MEAS_SCAN_RESOLUTION_X "0.0002"
*MEAS_SCAN_SPEED "10.0000"
*MEAS_SCAN_SPEED_UNIT "deg/min"
*MEAS_SCAN_START "10.0000"
*MEAS_SCAN_START_TIME "09/03/2021 18:24:58"
*MEAS_SCAN_STEP "0.0200"
*MEAS_SCAN_STOP "100.0000"
*MEAS_SCAN_UNEQUALY_SPACED "False"
*MEAS_SCAN_UNIT_X "deg"
*MEAS_SCAN_UNIT_Y "counts"
*RAS_HEADER_END
*RAS_INT_START
10.0000 9.5853 1.0000
10.0200 8.7793 1.0000
10.0400 13.7946 1.0000
10.0600 11.7690 1.0000
10.0800 7.3853 1.0000
10.1000 10.5740 1.0000
10.1200 9.8201 1.0000
10.1400 9.3625 1.0000
10.1600 8.7291 1.0000
10.1800 15.2587 1.0000
10.2000 10.6872 1.0000
10.2200 8.4315 1.0000
10.2400 18.1922 1.0000
10.2600 14.2072 1.0000
10.2800 6.3225 1.0000
10.3000 12.4677 1.0000
10.3200 8.7236 1.0000
10.3400 7.7523 1.0000
10.3600 13.7496 1.0000
10.3800 11.4751 1.0000
10.4000 12.5500 1.0000
10.4200 14.9865 1.0000
10.4400 5.2470 1.0000
10.4600 4.5514 1.0000
10.4800 10.8126 1.0000
10.5000 8.7608 1.0000
10.5200 9.7822 1.0000
10.5400 5.3346 1.0000
10.5600 7.9369 1.0000
10.5800 12.7250 1.0000
10.6000 12.5814 1.0000
10.6200 10.9202 1.0000
10.6400 10.5639 1.0000
10.6600 11.6519 1.0000
10.6800 10.8710 1.0000
10.7000 10.5748 1.0000
10.7200 11.5153 1.0000
10.7400 14.7753 1.0000
10.7600 6.9699 1.0000
10.7800 11.6224 1.0000
10.8000 7.2938 1.0000
10.8200 9.8335 1.0000
10.8400 7.4790 1.0000
10.8600 6.3589 1.0000
10.8800 9.5257 1.0000
10.9000 11.7960 1.0000
10.9200 6.2315 1.0000
10.9400 10.4509 1.0000
10.9600 13.6390 1.0000
10.9800 12.7341 1.0000
11.0000 7.5573 1.0000
11.0200 12.9261 1.0000
11.0400 21.0291 1.0000
11.0600 12.8031 1.0000
11.0800 16.7841 1.0000
11.1000 9.5747 1.0000
11.1200 10.5323 1.0000
11.1400 10.8757 1.0000
11.1600 11.5474 1.0000
11.1800 11.6113 1.0000
11.2000 10.9109 1.0000
11.2200 7.6481 1.0000
11.2400 11.5499 1.0000
11.2600 5.3174 1.0000
11.2800 6.2194 1.0000
11.3000 8.8708 1.0000
11.3200 7.2845 1.0000
11.3400 5.5671 1.0000
11.3600 12.9212 1.0000
11.3800 9.2273 1.0000
11.4000 10.5638 1.0000
11.4200 7.7822 1.0000
11.4400 5.3758 1.0000
11.4600 9.5516 1.0000
11.4800 8.5949 1.0000
11.5000 6.3103 1.0000
11.5200 10.6125 1.0000
11.5400 7.3800 1.0000
11.5600 8.4606 1.0000
11.5800 6.3821 1.0000
11.6000 9.3065 1.0000
11.6200 10.9974 1.0000
11.6400 5.3886 1.0000
11.6600 4.2129 1.0000
11.6800 11.5621 1.0000
11.7000 11.1970 1.0000
11.7200 8.4117 1.0000
11.7400 4.5424 1.0000
11.7600 6.3927 1.0000
11.7800 10.5972 1.0000
11.8000 8.9038 1.0000
11.8200 6.3286 1.0000
11.8400 13.6212 1.0000
11.8600 9.5318 1.0000
11.8800 6.3518 1.0000
11.9000 10.4769 1.0000
11.9200 7.4517 1.0000
11.9400 10.5373 1.0000
11.9600 11.7229 1.0000
11.9800 7.8536 1.0000
12.0000 7.4080 1.0000
12.0200 9.3916 1.0000
12.0400 14.5022 1.0000
12.0600 15.7984 1.0000
12.0800 8.7896 1.0000
12.1000 7.4607 1.0000
12.1200 7.4988 1.0000
12.1400 7.9386 1.0000
12.1600 12.8708 1.0000
12.1800 6.6089 1.0000
12.2000 15.1064 1.0000
12.2200 8.5904 1.0000
12.2400 13.6812 1.0000
12.2600 11.8589 1.0000
12.2800 11.3736 1.0000
12.3000 7.7102 1.0000
12.3200 13.0654 1.0000
12.3400 15.8299 1.0000
12.3600 7.3345 1.0000
12.3800 12.6560 1.0000
12.4000 5.2532 1.0000
12.4200 4.2480 1.0000
12.4400 10.6619 1.0000
12.4600 4.1605 1.0000
12.4800 10.4581 1.0000
12.5000 6.8187 1.0000
12.5200 11.8583 1.0000
12.5400 16.8500 1.0000
12.5600 16.1985 1.0000
12.5800 13.6172 1.0000
12.6000 11.6181 1.0000
12.6200 9.3614 1.0000
12.6400 9.5452 1.0000
12.6600 8.4196 1.0000
12.6800 14.8025 1.0000
12.7000 14.6886 1.0000
12.7200 13.6080 1.0000
12.7400 11.6531 1.0000
12.7600 4.4951 1.0000
12.7800 11.6185 1.0000
12.8000 11.6263 1.0000
12.8200 12.7655 1.0000
12.8400 9.2624 1.0000
12.8600 7.4921 1.0000
12.8800 8.9930 1.0000
12.9000 14.8271 1.0000
12.9200 10.8311 1.0000
12.9400 10.4339 1.0000
12.9600 7.7066 1.0000
12.9800 17.8271 1.0000
13.0000 12.6255 1.0000
13.0200 8.3929 1.0000
13.0400 9.5109 1.0000
13.0600 11.5421 1.0000
13.0800 10.4854 1.0000
13.1000 8.5438 1.0000
13.1200 6.6749 1.0000
13.1400 8.4335 1.0000
13.1600 9.5335 1.0000
13.1800 15.7476 1.0000
13.2000 9.7302 1.0000
13.2200 7.2425 1.0000
13.2400 8.5803 1.0000
13.2600 5.6845 1.0000
13.2800 9.7511 1.0000
13.3000 10.4444 1.0000
13.3200 4.2145 1.0000
13.3400 7.4087 1.0000
13.3600 12.7106 1.0000
13.3800 10.6157 1.0000
13.4000 16.0969 1.0000
13.4200 8.4066 1.0000
13.4400 9.4651 1.0000
13.4600 11.9543 1.0000
13.4800 10.7654 1.0000
13.5000 8.3007 1.0000
13.5200 8.6350 1.0000
13.5400 7.3504 1.0000
13.5600 11.6975 1.0000
13.5800 13.6407 1.0000
13.6000 7.5636 1.0000
13.6200 8.3153 1.0000
13.6400 13.6490 1.0000
13.6600 18.4964 1.0000
13.6800 8.3378 1.0000
13.7000 13.6657 1.0000
13.7200 19.3756 1.0000
13.7400 9.2012 1.0000
13.7600 11.5602 1.0000
13.7800 6.6482 1.0000
13.8000 15.1459 1.0000
13.8200 15.6652 1.0000
13.8400 13.8354 1.0000
13.8600 16.9859 1.0000
13.8800 8.7483 1.0000
13.9000 10.4662 1.0000
13.9200 9.5635 1.0000
13.9400 11.7517 1.0000
13.9600 12.5549 1.0000
13.9800 8.4270 1.0000
14.0000 15.9035 1.0000
14.0200 18.9555 1.0000
14.0400 13.7526 1.0000
14.0600 15.3166 1.0000
14.0800 15.0899 1.0000
14.1000 14.8511 1.0000
14.1200 14.8809 1.0000
14.1400 8.4987 1.0000
14.1600 11.6071 1.0000
14.1800 18.2057 1.0000
14.2000 13.0139 1.0000
14.2200 13.6829 1.0000
14.2400 14.0427 1.0000
14.2600 9.4138 1.0000
14.2800 13.6183 1.0000
14.3000 14.6932 1.0000
14.3200 16.9501 1.0000
14.3400 14.4946 1.0000
14.3600 9.4432 1.0000
14.3800 14.1114 1.0000
14.4000 19.9452 1.0000
14.4200 17.9805 1.0000
14.4400 15.8587 1.0000
14.4600 7.3476 1.0000
14.4800 14.0126 1.0000
14.5000 17.8308 1.0000
14.5200 12.6031 1.0000
14.5400 12.5561 1.0000
14.5600 16.5736 1.0000
14.5800 15.8035 1.0000
14.6000 12.6479 1.0000
14.6200 18.9742 1.0000
14.6400 15.9312 1.0000
14.6600 18.0553 1.0000
14.6800 12.5978 1.0000
14.7000 15.9099 1.0000
14.7200 12.5858 1.0000
14.7400 13.6681 1.0000
14.7600 13.8853 1.0000
14.7800 11.4760 1.0000
14.8000 18.9521 1.0000
14.8200 16.0250 1.0000
14.8400 20.4832 1.0000
14.8600 13.6941 1.0000
14.8800 18.1141 1.0000
14.9000 8.7558 1.0000
14.9200 21.2088 1.0000
14.9400 8.3298 1.0000
14.9600 18.4876 1.0000
14.9800 14.0957 1.0000
15.0000 10.5386 1.0000
15.0200 19.0078 1.0000
15.0400 17.7180 1.0000
15.0600 18.2729 1.0000
15.0800 10.5081 1.0000
15.1000 11.4986 1.0000
15.1200 10.9632 1.0000
15.1400 12.5694 1.0000
15.1600 12.3904 1.0000
15.1800 22.2739 1.0000
15.2000 15.9300 1.0000
15.2200 12.6358 1.0000
15.2400 24.2659 1.0000
15.2600 21.0398 1.0000
15.2800 22.5215 1.0000
15.3000 8.9042 1.0000
15.3200 12.6411 1.0000
15.3400 17.2997 1.0000
15.3600 7.4561 1.0000
15.3800 17.9548 1.0000
15.4000 13.8944 1.0000
15.4200 12.5575 1.0000
15.4400 23.0138 1.0000
15.4600 12.5649 1.0000
15.4800 11.5863 1.0000
15.5000 19.9680 1.0000
15.5200 22.2167 1.0000
15.5400 14.6230 1.0000
15.5600 10.9206 1.0000
15.5800 14.7336 1.0000
15.6000 16.1795 1.0000
15.6200 15.1110 1.0000
15.6400 13.8173 1.0000
15.6600 14.7984 1.0000
15.6800 19.0605 1.0000
15.7000 15.8613 1.0000
15.7200 16.8992 1.0000
15.7400 8.5843 1.0000
15.7600 15.8177 1.0000
15.7800 18.9393 1.0000
15.8000 16.2017 1.0000
15.8200 11.5935 1.0000
15.8400 18.9692 1.0000
15.8600 17.8604 1.0000
15.8800 14.2023 1.0000
15.9000 13.6177 1.0000
15.9200 9.3851 1.0000
15.9400 19.2063 1.0000
15.9600 12.9247 1.0000
15.9800 21.3856 1.0000
16.0000 22.1051 1.0000
16.0200 16.0079 1.0000
16.0400 23.5442 1.0000
16.0600 12.6459 1.0000
16.0800 16.0937 1.0000
16.1000 23.0576 1.0000
16.1200 19.6265 1.0000
16.1400 15.9053 1.0000
16.1600 17.2651 1.0000
16.1800 17.1053 1.0000
16.2000 22.9370 1.0000
16.2200 17.9840 1.0000
16.2400 14.6264 1.0000
16.2600 15.8451 1.0000
16.2800 20.3469 1.0000
16.3000 21.0867 1.0000
16.3200 25.3385 1.0000
16.3400 24.6264 1.0000
16.3600 15.1175 1.0000
16.3800 15.5777 1.0000
16.4000 11.5990 1.0000
16.4200 16.8060 1.0000
16.4400 22.6899 1.0000
16.4600 25.7784 1.0000
16.4800 17.0864 1.0000
16.5000 19.1058 1.0000
16.5200 19.0261 1.0000
16.5400 15.8540 1.0000
16.5600 19.9589 1.0000
16.5800 16.6698 1.0000
16.6000 15.7728 1.0000
16.6200 19.9732 1.0000
16.6400 12.6404 1.0000
16.6600 16.8209 1.0000
16.6800 21.0790 1.0000
16.7000 26.2246 1.0000
16.7200 24.7484 1.0000
16.7400 25.0859 1.0000
16.7600 17.8572 1.0000
16.7800 9.4746 1.0000
16.8000 17.1526 1.0000
16.8200 22.4112 1.0000
16.8400 14.8852 1.0000
16.8600 14.2547 1.0000
16.8800 19.1643 1.0000
16.9000 12.7793 1.0000
16.9200 17.2881 1.0000
16.9400 18.5075 1.0000
16.9600 15.6301 1.0000
16.9800 17.3522 1.0000
17.0000 27.7148 1.0000
17.0200 14.9612 1.0000
17.0400 18.6746 1.0000
17.0600 15.0657 1.0000
17.0800 16.4425 1.0000
17.1000 9.3985 1.0000
17.1200 14.7184 1.0000
17.1400 23.9966 1.0000
17.1600 18.0636 1.0000
17.1800 28.3425 1.0000
17.2000 17.9865 1.0000
17.2200 9.4513 1.0000
17.2400 20.2075 1.0000
17.2600 20.7044 1.0000
17.2800 13.6349 1.0000
17.3000 14.7344 1.0000
17.3200 14.7483 1.0000
17.3400 15.7867 1.0000
17.3600 18.4143 1.0000
17.3800 15.7146 1.0000
17.4000 15.8725 1.0000
17.4200 11.6219 1.0000
17.4400 14.9932 1.0000
17.4600 25.4443 1.0000
17.4800 15.2072 1.0000
17.5000 16.7390 1.0000
17.5200 17.1894 1.0000
17.5400 16.7215 1.0000
17.5600 22.0665 1.0000
17.5800 13.6261 1.0000
17.6000 18.9526 1.0000
17.6200 16.7791 1.0000
17.6400 16.9133 1.0000
17.6600 15.7371 1.0000
17.6800 19.2555 1.0000
17.7000 20.2810 1.0000
17.7200 15.6912 1.0000
17.7400 16.9980 1.0000
17.7600 19.1183 1.0000
17.7800 17.9560 1.0000
17.8000 17.0328 1.0000
17.8200 21.7824 1.0000
17.8400 18.8576 1.0000
17.8600 16.1552 1.0000
17.8800 13.8807 1.0000
17.9000 24.8075 1.0000
17.9200 17.7183 1.0000
17.9400 11.4295 1.0000
17.9600 16.7867 1.0000
17.9800 13.0513 1.0000
18.0000 16.0688 1.0000
18.0200 18.1314 1.0000
18.0400 23.1531 1.0000
18.0600 20.5783 1.0000
18.0800 14.9058 1.0000
18.1000 17.9300 1.0000
18.1200 16.2710 1.0000
18.1400 14.1866 1.0000
18.1600 16.6967 1.0000
18.1800 18.8493 1.0000
18.2000 18.2285 1.0000
18.2200 13.6379 1.0000
18.2400 20.3597 1.0000
18.2600 20.2963 1.0000
18.2800 19.4931 1.0000
18.3000 15.2323 1.0000
18.3200 19.9148 1.0000
18.3400 10.4403 1.0000
18.3600 11.4372 1.0000
18.3800 16.0727 1.0000
18.4000 17.1201 1.0000
18.4200 21.3742 1.0000
18.4400 18.1846 1.0000
18.4600 14.8804 1.0000
18.4800 10.5775 1.0000
18.5000 14.6471 1.0000
18.5200 16.9091 1.0000
18.5400 20.0893 1.0000
18.5600 10.6257 1.0000
18.5800 11.5663 1.0000
18.6000 15.8606 1.0000
18.6200 19.9901 1.0000
18.6400 13.6294 1.0000
18.6600 16.0324 1.0000
18.6800 12.7027 1.0000
18.7000 20.0906 1.0000
18.7200 17.5478 1.0000
18.7400 13.7448 1.0000
18.7600 16.8352 1.0000
18.7800 13.6359 1.0000
18.8000 18.2654 1.0000
18.8200 17.8174 1.0000
18.8400 17.9381 1.0000
18.8600 13.6053 1.0000
18.8800 15.8698 1.0000
18.9000 10.8598 1.0000
18.9200 16.3321 1.0000
18.9400 20.0555 1.0000
18.9600 14.6258 1.0000
18.9800 19.0104 1.0000
19.0000 13.5853 1.0000
19.0200 16.8702 1.0000
19.0400 10.9648 1.0000
19.0600 18.1414 1.0000
19.0800 16.8779 1.0000
19.1000 25.3414 1.0000
19.1200 20.3635 1.0000
19.1400 8.7016 1.0000
19.1600 19.3455 1.0000
19.1800 14.8926 1.0000
19.2000 17.0920 1.0000
19.2200 17.9471 1.0000
19.2400 22.2993 1.0000
19.2600 14.5805 1.0000
19.2800 14.7282 1.0000
19.3000 8.3374 1.0000
19.3200 11.4880 1.0000
19.3400 14.7627 1.0000
19.3600 14.9046 1.0000
19.3800 18.8316 1.0000
19.4000 16.1775 1.0000
19.4200 14.8459 1.0000
19.4400 11.8442 1.0000
19.4600 15.5562 1.0000
19.4800 19.2648 1.0000
19.5000 25.5640 1.0000
19.5200 16.9255 1.0000
19.5400 23.7027 1.0000
19.5600 16.9211 1.0000
19.5800 20.0691 1.0000
19.6000 15.8227 1.0000
19.6200 24.0941 1.0000
19.6400 16.1196 1.0000
19.6600 15.1948 1.0000
19.6800 16.9380 1.0000
19.7000 13.7055 1.0000
19.7200 11.8064 1.0000
19.7400 13.6496 1.0000
19.7600 15.7530 1.0000
19.7800 10.5710 1.0000
19.8000 15.9052 1.0000
19.8200 12.9887 1.0000
19.8400 18.3095 1.0000
19.8600 17.8934 1.0000
19.8800 19.1261 1.0000
19.9000 14.6791 1.0000
19.9200 22.2889 1.0000
19.9400 18.8532 1.0000
19.9600 12.6894 1.0000
19.9800 11.0254 1.0000
20.0000 12.6660 1.0000
20.0200 15.8253 1.0000
20.0400 13.9708 1.0000
20.0600 19.5561 1.0000
20.0800 16.0350 1.0000
20.1000 24.7272 1.0000
20.1200 15.2167 1.0000
20.1400 12.7021 1.0000
20.1600 21.9979 1.0000
20.1800 17.9383 1.0000
20.2000 14.4214 1.0000
20.2200 17.8616 1.0000
20.2400 15.9457 1.0000
20.2600 18.8156 1.0000
20.2800 14.6568 1.0000
20.3000 15.7917 1.0000
20.3200 7.3108 1.0000
20.3400 18.0656 1.0000
20.3600 14.0380 1.0000
20.3800 20.5080 1.0000
20.4000 16.2410 1.0000
20.4200 10.4795 1.0000
20.4400 16.9404 1.0000
20.4600 11.5067 1.0000
20.4800 19.9972 1.0000
20.5000 19.3236 1.0000
20.5200 9.5120 1.0000
20.5400 11.8679 1.0000
20.5600 13.7539 1.0000
20.5800 19.0256 1.0000
20.6000 17.0281 1.0000
20.6200 20.4122 1.0000
20.6400 17.8508 1.0000
20.6600 13.6253 1.0000
20.6800 18.2065 1.0000
20.7000 10.4656 1.0000
20.7200 15.8999 1.0000
20.7400 11.5136 1.0000
20.7600 17.0598 1.0000
20.7800 23.3349 1.0000
20.8000 15.7188 1.0000
20.8200 14.8235 1.0000
20.8400 15.8799 1.0000
20.8600 13.0387 1.0000
20.8800 9.1378 1.0000
20.9000 19.8151 1.0000
20.9200 15.8289 1.0000
20.9400 12.5942 1.0000
20.9600 16.8021 1.0000
20.9800 13.9349 1.0000
21.0000 23.3826 1.0000
21.0200 16.8232 1.0000
21.0400 13.6125 1.0000
21.0600 15.9227 1.0000
21.0800 20.1748 1.0000
21.1000 18.0310 1.0000
21.1200 17.8344 1.0000
21.1400 20.0550 1.0000
21.1600 20.1220 1.0000
21.1800 25.6420 1.0000
21.2000 18.6722 1.0000
21.2200 12.7377 1.0000
21.2400 17.9285 1.0000
21.2600 30.5434 1.0000
21.2800 13.0445 1.0000
21.3000 16.8763 1.0000
21.3200 20.0534 1.0000
21.3400 15.8268 1.0000
21.3600 11.6881 1.0000
21.3800 17.2861 1.0000
21.4000 15.7822 1.0000
21.4200 18.2388 1.0000
21.4400 24.3522 1.0000
21.4600 13.7101 1.0000
21.4800 25.9089 1.0000
21.5000 15.7933 1.0000
21.5200 21.4887 1.0000
21.5400 14.8194 1.0000
21.5600 21.1722 1.0000
21.5800 14.6217 1.0000
21.6000 23.3927 1.0000
21.6200 15.7151 1.0000
21.6400 14.0326 1.0000
21.6600 23.5009 1.0000
21.6800 28.8944 1.0000
21.7000 23.0265 1.0000
21.7200 25.2767 1.0000
21.7400 21.1347 1.0000
21.7600 19.9776 1.0000
21.7800 20.1082 1.0000
21.8000 28.5336 1.0000
21.8200 23.4488 1.0000
21.8400 20.9603 1.0000
21.8600 16.8153 1.0000
21.8800 20.5174 1.0000
21.9000 29.8434 1.0000
21.9200 22.3038 1.0000
21.9400 22.4133 1.0000
21.9600 22.0438 1.0000
21.9800 26.3647 1.0000
22.0000 22.0218 1.0000
22.0200 24.4529 1.0000
22.0400 31.0098 1.0000
22.0600 26.1303 1.0000
22.0800 36.1069 1.0000
22.1000 29.4818 1.0000
22.1200 31.3219 1.0000
22.1400 35.8173 1.0000
22.1600 27.5493 1.0000
22.1800 30.7042 1.0000
22.2000 29.9006 1.0000
22.2200 37.1382 1.0000
22.2400 36.0775 1.0000
22.2600 26.3477 1.0000
22.2800 29.6807 1.0000
22.3000 40.2921 1.0000
22.3200 38.4247 1.0000
22.3400 24.5872 1.0000
22.3600 34.2481 1.0000
22.3800 49.2476 1.0000
22.4000 36.4236 1.0000
22.4200 32.9993 1.0000
22.4400 36.9370 1.0000
22.4600 38.9021 1.0000
22.4800 45.3072 1.0000
22.5000 26.1240 1.0000
22.5200 38.2158 1.0000
22.5400 49.3676 1.0000
22.5600 53.3910 1.0000
22.5800 44.3176 1.0000
22.6000 51.5702 1.0000
22.6200 51.3965 1.0000
22.6400 54.7004 1.0000
22.6600 65.5469 1.0000
22.6800 65.2202 1.0000
22.7000 55.7282 1.0000
22.7200 63.5510 1.0000
22.7400 65.4441 1.0000
22.7600 72.8802 1.0000
22.7800 81.7123 1.0000
22.8000 89.6200 1.0000
22.8200 89.9775 1.0000
22.8400 88.9808 1.0000
22.8600 97.0699 1.0000
22.8800 122.6316 1.0000
22.9000 127.5965 1.0000
22.9200 122.4782 1.0000
22.9400 138.8432 1.0000
22.9600 153.2166 1.0000
22.9800 130.8811 1.0000
23.0000 160.7846 1.0000
23.0200 193.1210 1.0000
23.0400 163.7109 1.0000
23.0600 219.0594 1.0000
23.0800 232.7810 1.0000
23.1000 241.6592 1.0000
23.1200 269.0681 1.0000
23.1400 328.0463 1.0000
23.1600 357.4132 1.0000
23.1800 392.2724 1.0000
23.2000 513.0234 1.0000
23.2200 598.0165 1.0000
23.2400 720.9137 1.0000
23.2600 825.5469 1.0000
23.2800 1095.2744 1.0000
23.3000 1394.2806 1.0000
23.3200 1853.3397 1.0000
23.3400 2643.5115 1.0000
23.3600 4234.5889 1.0000
23.3800 8279.7197 1.0000
23.4000 46114.9063 1.0000
23.4200 320219.7500 1.0000
23.4400 747330.7500 1.0000
23.4600 706086.3125 1.0000
23.4800 581597.3125 1.0000
23.5000 440075.1563 1.0000
23.5200 294546.4688 1.0000
23.5400 92124.1484 1.0000
23.5600 10533.9268 1.0000
23.5800 4240.4839 1.0000
23.6000 2668.1921 1.0000
23.6200 1819.0125 1.0000
23.6400 1441.7336 1.0000
23.6600 1132.0072 1.0000
23.6800 861.3942 1.0000
23.7000 736.6658 1.0000
23.7200 567.4692 1.0000
23.7400 528.0994 1.0000
23.7600 426.2802 1.0000
23.7800 374.5702 1.0000
23.8000 341.0024 1.0000
23.8200 318.7366 1.0000
23.8400 286.2571 1.0000
23.8600 228.6483 1.0000
23.8800 223.4286 1.0000
23.9000 219.3882 1.0000
23.9200 159.4462 1.0000
23.9400 181.1314 1.0000
23.9600 160.1165 1.0000
23.9800 170.1149 1.0000
24.0000 129.5201 1.0000
24.0200 123.2541 1.0000
24.0400 123.4432 1.0000
24.0600 115.1107 1.0000
24.0800 118.8634 1.0000
24.1000 131.9326 1.0000
24.1200 97.2945 1.0000
24.1400 122.1909 1.0000
24.1600 86.3110 1.0000
24.1800 88.6171 1.0000
24.2000 79.3346 1.0000
24.2200 87.5002 1.0000
24.2400 67.0165 1.0000
24.2600 68.8773 1.0000
24.2800 64.6384 1.0000
24.3000 68.3439 1.0000
24.3200 52.6142 1.0000
24.3400 64.6653 1.0000
24.3600 50.8369 1.0000
24.3800 47.4635 1.0000
24.4000 54.8989 1.0000
24.4200 48.6096 1.0000
24.4400 53.9615 1.0000
24.4600 62.4384 1.0000
24.4800 44.3812 1.0000
24.5000 48.5077 1.0000
24.5200 43.7023 1.0000
24.5400 28.2763 1.0000
24.5600 51.5402 1.0000
24.5800 34.9267 1.0000
24.6000 41.0408 1.0000
24.6200 30.5516 1.0000
24.6400 30.7851 1.0000
24.6600 33.9082 1.0000
24.6800 30.5756 1.0000
24.7000 41.2278 1.0000
24.7200 36.8601 1.0000
24.7400 23.1683 1.0000
24.7600 35.5418 1.0000
24.7800 38.0987 1.0000
24.8000 30.4598 1.0000
24.8200 37.9696 1.0000
24.8400 34.1336 1.0000
24.8600 31.7255 1.0000
24.8800 39.5397 1.0000
24.9000 13.7408 1.0000
24.9200 27.7888 1.0000
24.9400 29.8311 1.0000
24.9600 28.5773 1.0000
24.9800 24.5379 1.0000
25.0000 25.1849 1.0000
25.0200 23.4321 1.0000
25.0400 19.0089 1.0000
25.0600 22.3674 1.0000
25.0800 22.0785 1.0000
25.1000 25.2615 1.0000
25.1200 20.3880 1.0000
25.1400 26.4446 1.0000
25.1600 21.1770 1.0000
25.1800 8.7207 1.0000
25.2000 17.0005 1.0000
25.2200 19.8711 1.0000
25.2400 18.3811 1.0000
25.2600 20.7206 1.0000
25.2800 18.9799 1.0000
25.3000 14.7667 1.0000
25.3200 23.1367 1.0000
25.3400 25.5286 1.0000
25.3600 18.0759 1.0000
25.3800 22.0091 1.0000
25.4000 20.0050 1.0000
25.4200 20.0394 1.0000
25.4400 16.8297 1.0000
25.4600 16.7367 1.0000
25.4800 14.6904 1.0000
25.5000 12.8580 1.0000
25.5200 16.3575 1.0000
25.5400 20.3941 1.0000
25.5600 16.8947 1.0000
25.5800 13.8772 1.0000
25.6000 26.3008 1.0000
25.6200 13.6228 1.0000
25.6400 14.0610 1.0000
25.6600 12.8054 1.0000
25.6800 22.2766 1.0000
25.7000 10.5538 1.0000
25.7200 20.1838 1.0000
25.7400 11.6793 1.0000
25.7600 25.2053 1.0000
25.7800 21.0069 1.0000
25.8000 16.0474 1.0000
25.8200 20.2268 1.0000
25.8400 17.8719 1.0000
25.8600 12.5895 1.0000
25.8800 14.8180 1.0000
25.9000 15.1391 1.0000
25.9200 19.1359 1.0000
25.9400 14.8695 1.0000
25.9600 11.8784 1.0000
25.9800 22.0055 1.0000
26.0000 20.1195 1.0000
26.0200 16.8646 1.0000
26.0400 13.7806 1.0000
26.0600 15.8429 1.0000
26.0800 4.2131 1.0000
26.1000 10.5849 1.0000
26.1200 17.1236 1.0000
26.1400 13.7678 1.0000
26.1600 13.5994 1.0000
26.1800 17.2773 1.0000
26.2000 20.2389 1.0000
26.2200 21.3757 1.0000
26.2400 14.8355 1.0000
26.2600 14.9416 1.0000
26.2800 24.3550 1.0000
26.3000 21.1397 1.0000
26.3200 11.5637 1.0000
26.3400 20.0345 1.0000
26.3600 12.5916 1.0000
26.3800 11.6312 1.0000
26.4000 14.6123 1.0000
26.4200 10.5019 1.0000
26.4400 16.9362 1.0000
26.4600 18.9145 1.0000
26.4800 8.3399 1.0000
26.5000 16.7276 1.0000
26.5200 8.3652 1.0000
26.5400 7.4104 1.0000
26.5600 11.6340 1.0000
26.5800 12.6190 1.0000
26.6000 18.7558 1.0000
26.6200 7.7013 1.0000
26.6400 13.7629 1.0000
26.6600 10.6383 1.0000
26.6800 11.9867 1.0000
26.7000 15.7119 1.0000
26.7200 10.3926 1.0000
26.7400 16.9328 1.0000
26.7600 16.9231 1.0000
26.7800 7.2813 1.0000
26.8000 14.7689 1.0000
26.8200 10.6647 1.0000
26.8400 6.3066 1.0000
26.8600 8.8363 1.0000
26.8800 13.6018 1.0000
26.9000 12.6913 1.0000
26.9200 12.7374 1.0000
26.9400 12.6619 1.0000
26.9600 12.5239 1.0000
26.9800 8.7705 1.0000
27.0000 8.8072 1.0000
27.0200 12.1078 1.0000
27.0400 9.4236 1.0000
27.0600 14.1071 1.0000
27.0800 10.7319 1.0000
27.1000 13.2928 1.0000
27.1200 11.5498 1.0000
27.1400 11.4965 1.0000
27.1600 7.3807 1.0000
27.1800 13.2367 1.0000
27.2000 12.0345 1.0000
27.2200 8.3975 1.0000
27.2400 10.5411 1.0000
27.2600 7.6118 1.0000
27.2800 8.7683 1.0000
27.3000 10.5233 1.0000
27.3200 10.5498 1.0000
27.3400 8.7544 1.0000
27.3600 15.8406 1.0000
27.3800 14.6952 1.0000
27.4000 10.6776 1.0000
27.4200 14.6685 1.0000
27.4400 12.5993 1.0000
27.4600 11.9593 1.0000
27.4800 10.5299 1.0000
27.5000 10.5284 1.0000
27.5200 5.4108 1.0000
27.5400 5.2462 1.0000
27.5600 7.2773 1.0000
27.5800 11.7317 1.0000
27.6000 8.5052 1.0000
27.6200 15.9478 1.0000
27.6400 5.2954 1.0000
27.6600 8.2612 1.0000
27.6800 6.3350 1.0000
27.7000 10.5346 1.0000
27.7200 7.3270 1.0000
27.7400 11.6624 1.0000
27.7600 9.3490 1.0000
27.7800 9.5642 1.0000
27.8000 8.5051 1.0000
27.8200 7.4081 1.0000
27.8400 10.7314 1.0000
27.8600 9.5620 1.0000
27.8800 8.0811 1.0000
27.9000 14.9596 1.0000
27.9200 9.4469 1.0000
27.9400 10.7165 1.0000
27.9600 8.3607 1.0000
27.9800 14.8040 1.0000
28.0000 8.3879 1.0000
28.0200 11.5880 1.0000
28.0400 11.8137 1.0000
28.0600 11.2695 1.0000
28.0800 18.0552 1.0000
28.1000 9.4732 1.0000
28.1200 11.7412 1.0000
28.1400 8.4168 1.0000
28.1600 8.4899 1.0000
28.1800 16.1192 1.0000
28.2000 6.4328 1.0000
28.2200 9.5484 1.0000
28.2400 7.3254 1.0000
28.2600 5.3072 1.0000
28.2800 7.3779 1.0000
28.3000 7.4848 1.0000
28.3200 5.3814 1.0000
28.3400 5.3557 1.0000
28.3600 15.7389 1.0000
28.3800 15.8333 1.0000
28.4000 18.0629 1.0000
28.4200 13.7094 1.0000
28.4400 13.7430 1.0000
28.4600 9.3171 1.0000
28.4800 9.5509 1.0000
28.5000 11.6088 1.0000
28.5200 9.9149 1.0000
28.5400 8.7438 1.0000
28.5600 7.4568 1.0000
28.5800 9.5453 1.0000
28.6000 9.4520 1.0000
28.6200 7.7119 1.0000
28.6400 12.7622 1.0000
28.6600 4.1630 1.0000
28.6800 8.5671 1.0000
28.7000 8.3957 1.0000
28.7200 8.3945 1.0000
28.7400 11.6428 1.0000
28.7600 10.4147 1.0000
28.7800 5.3313 1.0000
28.8000 7.4245 1.0000
28.8200 7.5085 1.0000
28.8400 2.0805 1.0000
28.8600 8.4783 1.0000
28.8800 2.0574 1.0000
28.9000 5.6305 1.0000
28.9200 9.4421 1.0000
28.9400 8.4601 1.0000
28.9600 9.5346 1.0000
28.9800 10.6493 1.0000
29.0000 7.4176 1.0000
29.0200 8.4200 1.0000
29.0400 11.5721 1.0000
29.0600 13.5134 1.0000
29.0800 8.3307 1.0000
29.1000 5.2155 1.0000
29.1200 11.5484 1.0000
29.1400 8.3852 1.0000
29.1600 5.5436 1.0000
29.1800 7.4349 1.0000
29.2000 11.6118 1.0000
29.2200 6.3884 1.0000
29.2400 5.3196 1.0000
29.2600 9.5598 1.0000
29.2800 13.7843 1.0000
29.3000 7.6574 1.0000
29.3200 6.3446 1.0000
29.3400 5.4066 1.0000
29.3600 5.2661 1.0000
29.3800 10.5459 1.0000
29.4000 10.6131 1.0000
29.4200 8.4317 1.0000
29.4400 5.2002 1.0000
29.4600 9.4531 1.0000
29.4800 12.0739 1.0000
29.5000 6.2688 1.0000
29.5200 11.9661 1.0000
29.5400 10.5784 1.0000
29.5600 7.7108 1.0000
29.5800 9.5664 1.0000
29.6000 6.3150 1.0000
29.6200 10.5909 1.0000
29.6400 12.5703 1.0000
29.6600 11.8627 1.0000
29.6800 7.4637 1.0000
29.7000 9.8235 1.0000
29.7200 6.3643 1.0000
29.7400 6.3515 1.0000
29.7600 11.8197 1.0000
29.7800 5.4982 1.0000
29.8000 9.3600 1.0000
29.8200 6.4357 1.0000
29.8400 7.5084 1.0000
29.8600 12.6992 1.0000
29.8800 17.7620 1.0000
29.9000 5.1530 1.0000
29.9200 8.3351 1.0000
29.9400 10.6249 1.0000
29.9600 8.5669 1.0000
29.9800 10.4997 1.0000
30.0000 10.9210 1.0000
30.0200 7.5179 1.0000
30.0400 5.4820 1.0000
30.0600 11.5899 1.0000
30.0800 2.5230 1.0000
30.1000 7.3536 1.0000
30.1200 10.9173 1.0000
30.1400 7.7291 1.0000
30.1600 3.2281 1.0000
30.1800 13.6525 1.0000
30.2000 4.2076 1.0000
30.2200 4.2992 1.0000
30.2400 6.2538 1.0000
30.2600 4.3083 1.0000
30.2800 10.0142 1.0000
30.3000 3.2444 1.0000
30.3200 8.4957 1.0000
30.3400 6.4594 1.0000
30.3600 6.3854 1.0000
30.3800 4.2079 1.0000
30.4000 3.1521 1.0000
30.4200 4.2240 1.0000
30.4400 6.4120 1.0000
30.4600 4.1405 1.0000
30.4800 5.3472 1.0000
30.5000 11.3477 1.0000
30.5200 5.4872 1.0000
30.5400 13.7505 1.0000
30.5600 7.3986 1.0000
30.5800 5.2219 1.0000
30.6000 11.5832 1.0000
30.6200 8.3328 1.0000
30.6400 9.3323 1.0000
30.6600 5.2454 1.0000
30.6800 5.3096 1.0000
30.7000 7.4619 1.0000
30.7200 3.4622 1.0000
30.7400 9.8583 1.0000
30.7600 8.3452 1.0000
30.7800 4.1757 1.0000
30.8000 8.5663 1.0000
30.8200 5.1552 1.0000
30.8400 5.2083 1.0000
30.8600 4.1479 1.0000
30.8800 11.5517 1.0000
30.9000 4.4801 1.0000
30.9200 3.0893 1.0000
30.9400 9.4376 1.0000
30.9600 5.4005 1.0000
30.9800 9.3802 1.0000
31.0000 1.0937 1.0000
31.0200 3.5288 1.0000
31.0400 7.2815 1.0000
31.0600 9.2933 1.0000
31.0800 5.1858 1.0000
31.1000 10.7253 1.0000
31.1200 8.4689 1.0000
31.1400 4.1096 1.0000
31.1600 10.5386 1.0000
31.1800 4.5679 1.0000
31.2000 5.2431 1.0000
31.2200 5.2729 1.0000
31.2400 4.1957 1.0000
31.2600 6.6462 1.0000
31.2800 3.2031 1.0000
31.3000 6.2864 1.0000
31.3200 3.1173 1.0000
31.3400 4.2499 1.0000
31.3600 3.4629 1.0000
31.3800 4.3213 1.0000
31.4000 6.3181 1.0000
31.4200 6.3462 1.0000
31.4400 8.3769 1.0000
31.4600 11.7039 1.0000
31.4800 4.0864 1.0000
31.5000 5.2311 1.0000
31.5200 10.6549 1.0000
31.5400 10.4079 1.0000
31.5600 7.3628 1.0000
31.5800 5.2609 1.0000
31.6000 3.0536 1.0000
31.6200 8.3408 1.0000
31.6400 3.5997 1.0000
31.6600 9.4780 1.0000
31.6800 4.2085 1.0000
31.7000 5.5939 1.0000
31.7200 5.3588 1.0000
31.7400 4.1690 1.0000
31.7600 4.2961 1.0000
31.7800 9.5042 1.0000
31.8000 7.3513 1.0000
31.8200 8.5383 1.0000
31.8400 12.6035 1.0000
31.8600 5.3529 1.0000
31.8800 9.9576 1.0000
31.9000 4.2065 1.0000
31.9200 6.6760 1.0000
31.9400 4.1885 1.0000
31.9600 6.2294 1.0000
31.9800 7.4528 1.0000
32.0000 8.7626 1.0000
32.0200 6.6173 1.0000
32.0400 4.3269 1.0000
32.0600 6.3887 1.0000
32.0800 8.3572 1.0000
32.1000 4.2457 1.0000
32.1200 3.1534 1.0000
32.1400 4.2070 1.0000
32.1600 8.8623 1.0000
32.1800 5.3819 1.0000
32.2000 9.5764 1.0000
32.2200 10.4238 1.0000
32.2400 6.3979 1.0000
32.2600 7.3013 1.0000
32.2800 8.8424 1.0000
32.3000 7.3603 1.0000
32.3200 4.1067 1.0000
32.3400 8.3037 1.0000
32.3600 2.0907 1.0000
32.3800 5.2109 1.0000
32.4000 7.4821 1.0000
32.4200 4.2216 1.0000
32.4400 4.2478 1.0000
32.4600 6.3104 1.0000
32.4800 9.9499 1.0000
32.5000 2.5516 1.0000
32.5200 4.2888 1.0000
32.5400 4.2786 1.0000
32.5600 6.3206 1.0000
32.5800 6.3955 1.0000
32.6000 6.5812 1.0000
32.6200 6.3475 1.0000
32.6400 6.2278 1.0000
32.6600 4.2738 1.0000
32.6800 4.1701 1.0000
32.7000 11.5302 1.0000
32.7200 5.2842 1.0000
32.7400 5.3695 1.0000
32.7600 5.1972 1.0000
32.7800 5.2152 1.0000
32.8000 6.2956 1.0000
32.8200 6.3601 1.0000
32.8400 4.2198 1.0000
32.8600 5.1642 1.0000
32.8800 8.4496 1.0000
32.9000 3.1679 1.0000
32.9200 4.1961 1.0000
32.9400 5.3792 1.0000
32.9600 2.1430 1.0000
32.9800 4.2271 1.0000
33.0000 5.1164 1.0000
33.0200 7.3271 1.0000
33.0400 7.3058 1.0000
33.0600 3.1117 1.0000
33.0800 4.3084 1.0000
33.1000 6.3960 1.0000
33.1200 6.2617 1.0000
33.1400 4.1417 1.0000
33.1600 5.2071 1.0000
33.1800 4.2216 1.0000
33.2000 6.3254 1.0000
33.2200 7.2809 1.0000
33.2400 6.2507 1.0000
33.2600 3.2706 1.0000
33.2800 2.1405 1.0000
33.3000 1.0348 1.0000
33.3200 8.4324 1.0000
33.3400 7.4520 1.0000
33.3600 9.5837 1.0000
33.3800 8.2297 1.0000
33.4000 8.8864 1.0000
33.4200 3.2208 1.0000
33.4400 11.5827 1.0000
33.4600 3.1726 1.0000
33.4800 5.3173 1.0000
33.5000 4.2602 1.0000
33.5200 8.3668 1.0000
33.5400 6.4529 1.0000
33.5600 7.4176 1.0000
33.5800 5.2679 1.0000
33.6000 5.1477 1.0000
33.6200 7.5882 1.0000
33.6400 1.0690 1.0000
33.6600 6.3566 1.0000
33.6800 6.3433 1.0000
33.7000 7.3595 1.0000
33.7200 7.2885 1.0000
33.7400 5.6171 1.0000
33.7600 4.1448 1.0000
33.7800 4.2691 1.0000
33.8000 6.3976 1.0000
33.8200 5.2572 1.0000
33.8400 5.4861 1.0000
33.8600 5.3635 1.0000
33.8800 9.7655 1.0000
33.9000 6.5277 1.0000
33.9200 2.1848 1.0000
33.9400 4.3814 1.0000
33.9600 5.2532 1.0000
33.9800 3.2055 1.0000
34.0000 9.8069 1.0000
34.0200 9.6107 1.0000
34.0400 3.1817 1.0000
34.0600 11.5441 1.0000
34.0800 2.1866 1.0000
34.1000 4.2798 1.0000
34.1200 4.2794 1.0000
34.1400 4.2303 1.0000
34.1600 7.3649 1.0000
34.1800 2.1221 1.0000
34.2000 3.1842 1.0000
34.2200 6.1807 1.0000
34.2400 4.2482 1.0000
34.2600 4.2650 1.0000
34.2800 4.1896 1.0000
34.3000 4.2492 1.0000
34.3200 4.2509 1.0000
34.3400 3.1951 1.0000
34.3600 2.0793 1.0000
34.3800 6.3103 1.0000
34.4000 5.3300 1.0000
34.4200 2.1921 1.0000
34.4400 7.3858 1.0000
34.4600 4.2304 1.0000
34.4800 12.5588 1.0000
34.5000 3.1974 1.0000
34.5200 4.0986 1.0000
34.5400 5.3150 1.0000
34.5600 3.2157 1.0000
34.5800 6.2563 1.0000
34.6000 8.4251 1.0000
34.6200 7.3509 1.0000
34.6400 2.5005 1.0000
34.6600 3.1483 1.0000
34.6800 3.1751 1.0000
34.7000 5.2083 1.0000
34.7200 7.3546 1.0000
34.7400 6.4442 1.0000
34.7600 6.2002 1.0000
34.7800 5.2496 1.0000
34.8000 6.3607 1.0000
34.8200 1.1397 1.0000
34.8400 3.1878 1.0000
34.8600 4.2238 1.0000
34.8800 7.2356 1.0000
34.9000 6.2313 1.0000
34.9200 7.3015 1.0000
34.9400 6.4313 1.0000
34.9600 6.2072 1.0000
34.9800 2.1771 1.0000
35.0000 6.3452 1.0000
35.0200 4.1481 1.0000
35.0400 2.4340 1.0000
35.0600 12.5532 1.0000
35.0800 3.1067 1.0000
35.1000 8.6512 1.0000
35.1200 5.2229 1.0000
35.1400 6.3822 1.0000
35.1600 3.1359 1.0000
35.1800 5.3523 1.0000
35.2000 4.1988 1.0000
35.2200 5.3225 1.0000
35.2400 4.2140 1.0000
35.2600 4.4957 1.0000
35.2800 2.7957 1.0000
35.3000 4.2408 1.0000
35.3200 8.5492 1.0000
35.3400 3.1142 1.0000
35.3600 6.2631 1.0000
35.3800 6.3915 1.0000
35.4000 6.4263 1.0000
35.4200 11.6015 1.0000
35.4400 3.1517 1.0000
35.4600 6.6483 1.0000
35.4800 10.5362 1.0000
35.5000 2.1092 1.0000
35.5200 8.4314 1.0000
35.5400 5.2551 1.0000
35.5600 4.3226 1.0000
35.5800 3.1724 1.0000
35.6000 4.2293 1.0000
35.6200 5.3988 1.0000
35.6400 5.1643 1.0000
35.6600 6.3245 1.0000
35.6800 4.2274 1.0000
35.7000 2.1003 1.0000
35.7200 4.1811 1.0000
35.7400 7.4611 1.0000
35.7600 4.4883 1.0000
35.7800 6.1601 1.0000
35.8000 4.1781 1.0000
35.8200 6.2501 1.0000
35.8400 5.2382 1.0000
35.8600 6.2922 1.0000
35.8800 5.1871 1.0000
35.9000 6.2242 1.0000
35.9200 6.4258 1.0000
35.9400 9.2871 1.0000
35.9600 0.0000 1.0000
35.9800 2.0408 1.0000
36.0000 9.4980 1.0000
36.0200 2.1285 1.0000
36.0400 7.4895 1.0000
36.0600 2.1010 1.0000
36.0800 3.1721 1.0000
36.1000 6.3172 1.0000
36.1200 1.3500 1.0000
36.1400 5.3254 1.0000
36.1600 9.4984 1.0000
36.1800 4.2610 1.0000
36.2000 4.1412 1.0000
36.2200 6.6474 1.0000
36.2400 4.2180 1.0000
36.2600 4.1504 1.0000
36.2800 3.1842 1.0000
36.3000 4.5696 1.0000
36.3200 2.0798 1.0000
36.3400 6.4426 1.0000
36.3600 5.2084 1.0000
36.3800 7.4602 1.0000
36.4000 5.1944 1.0000
36.4200 5.6574 1.0000
36.4400 13.6633 1.0000
36.4600 5.3373 1.0000
36.4800 2.4561 1.0000
36.5000 8.4335 1.0000
36.5200 6.3753 1.0000
36.5400 4.2270 1.0000
36.5600 5.5948 1.0000
36.5800 4.1542 1.0000
36.6000 8.4463 1.0000
36.6200 3.1898 1.0000
36.6400 4.1490 1.0000
36.6600 5.3311 1.0000
36.6800 7.4369 1.0000
36.7000 6.4355 1.0000
36.7200 6.3548 1.0000
36.7400 4.1524 1.0000
36.7600 2.1085 1.0000
36.7800 1.0390 1.0000
36.8000 4.1931 1.0000
36.8200 4.2205 1.0000
36.8400 8.4090 1.0000
36.8600 2.0971 1.0000
36.8800 8.5256 1.0000
36.9000 6.2513 1.0000
36.9200 3.1117 1.0000
36.9400 3.0996 1.0000
36.9600 5.3491 1.0000
36.9800 3.1583 1.0000
37.0000 3.5420 1.0000
37.0200 6.5140 1.0000
37.0400 6.3789 1.0000
37.0600 2.0910 1.0000
37.0800 5.2646 1.0000
37.1000 9.7539 1.0000
37.1200 7.5002 1.0000
37.1400 6.3666 1.0000
37.1600 4.1271 1.0000
37.1800 2.1695 1.0000
37.2000 6.1968 1.0000
37.2200 4.1804 1.0000
37.2400 7.2766 1.0000
37.2600 6.6607 1.0000
37.2800 3.4900 1.0000
37.3000 3.1233 1.0000
37.3200 3.1682 1.0000
37.3400 6.3745 1.0000
37.3600 3.1964 1.0000
37.3800 4.2702 1.0000
37.4000 2.1386 1.0000
37.4200 4.2892 1.0000
37.4400 6.2416 1.0000
37.4600 2.1436 1.0000
37.4800 8.3278 1.0000
37.5000 5.6700 1.0000
37.5200 6.4139 1.0000
37.5400 3.1322 1.0000
37.5600 5.1994 1.0000
37.5800 4.2507 1.0000
37.6000 2.0632 1.0000
37.6200 4.1575 1.0000
37.6400 5.2807 1.0000
37.6600 3.1878 1.0000
37.6800 11.9455 1.0000
37.7000 5.3224 1.0000
37.7200 6.2772 1.0000
37.7400 5.4085 1.0000
37.7600 7.4132 1.0000
37.7800 5.2843 1.0000
37.8000 2.1319 1.0000
37.8200 6.3696 1.0000
37.8400 4.2356 1.0000
37.8600 4.1644 1.0000
37.8800 4.1619 1.0000
37.9000 2.1317 1.0000
37.9200 7.4262 1.0000
37.9400 1.0580 1.0000
37.9600 4.2466 1.0000
37.9800 5.2633 1.0000
38.0000 4.2129 1.0000
38.0200 8.4566 1.0000
38.0400 6.2925 1.0000
38.0600 10.4759 1.0000
38.0800 6.3692 1.0000
38.1000 2.2026 1.0000
38.1200 3.4384 1.0000
38.1400 6.5686 1.0000
38.1600 3.1676 1.0000
38.1800 4.2536 1.0000
38.2000 3.2030 1.0000
38.2200 6.1411 1.0000
38.2400 6.4697 1.0000
38.2600 4.1773 1.0000
38.2800 4.3183 1.0000
38.3000 5.2103 1.0000
38.3200 3.2404 1.0000
38.3400 6.4233 1.0000
38.3600 7.3696 1.0000
38.3800 1.0398 1.0000
38.4000 3.1306 1.0000
38.4200 8.5233 1.0000
38.4400 6.7366 1.0000
38.4600 8.5448 1.0000
38.4800 3.2154 1.0000
38.5000 3.1501 1.0000
38.5200 5.1696 1.0000
38.5400 3.1040 1.0000
38.5600 8.7628 1.0000
38.5800 3.1834 1.0000
38.6000 1.0763 1.0000
38.6200 4.1405 1.0000
38.6400 7.5005 1.0000
38.6600 6.5407 1.0000
38.6800 5.1610 1.0000
38.7000 5.0880 1.0000
38.7200 10.7554 1.0000
38.7400 3.1198 1.0000
38.7600 2.1320 1.0000
38.7800 8.3165 1.0000
38.8000 8.4118 1.0000
38.8200 7.8225 1.0000
38.8400 4.1705 1.0000
38.8600 0.0000 1.0000
38.8800 1.3993 1.0000
38.9000 7.4603 1.0000
38.9200 3.1989 1.0000
38.9400 8.6677 1.0000
38.9600 3.2012 1.0000
38.9800 7.2866 1.0000
39.0000 11.6001 1.0000
39.0200 7.3611 1.0000
39.0400 4.1416 1.0000
39.0600 3.1162 1.0000
39.0800 11.7588 1.0000
39.1000 2.0766 1.0000
39.1200 5.8385 1.0000
39.1400 5.1487 1.0000
39.1600 5.2226 1.0000
39.1800 5.2379 1.0000
39.2000 2.0782 1.0000
39.2200 10.5554 1.0000
39.2400 3.1472 1.0000
39.2600 2.0906 1.0000
39.2800 2.1138 1.0000
39.3000 4.2912 1.0000
39.3200 8.5501 1.0000
39.3400 4.1698 1.0000
39.3600 4.1474 1.0000
39.3800 4.2648 1.0000
39.4000 4.2298 1.0000
39.4200 4.2144 1.0000
39.4400 6.3241 1.0000
39.4600 2.1673 1.0000
39.4800 5.2798 1.0000
39.5000 4.1555 1.0000
39.5200 1.1023 1.0000
39.5400 5.1945 1.0000
39.5600 4.2263 1.0000
39.5800 2.1823 1.0000
39.6000 5.2586 1.0000
39.6200 4.2637 1.0000
39.6400 8.3470 1.0000
39.6600 7.3580 1.0000
39.6800 5.3041 1.0000
39.7000 7.3059 1.0000
39.7200 2.0558 1.0000
39.7400 5.1935 1.0000
39.7600 6.3984 1.0000
39.7800 4.2224 1.0000
39.8000 10.6068 1.0000
39.8200 5.2404 1.0000
39.8400 5.1567 1.0000
39.8600 5.7429 1.0000
39.8800 3.1314 1.0000
39.9000 5.3791 1.0000
39.9200 5.2055 1.0000
39.9400 3.1771 1.0000
39.9600 4.1928 1.0000
39.9800 3.1174 1.0000
40.0000 4.2311 1.0000
40.0200 3.1358 1.0000
40.0400 0.0000 1.0000
40.0600 5.3422 1.0000
40.0800 4.1157 1.0000
40.1000 5.1930 1.0000
40.1200 4.2724 1.0000
40.1400 8.3029 1.0000
40.1600 3.0798 1.0000
40.1800 1.0237 1.0000
40.2000 4.1520 1.0000
40.2200 2.1119 1.0000
40.2400 6.3249 1.0000
40.2600 6.3242 1.0000
40.2800 2.0838 1.0000
40.3000 6.2303 1.0000
40.3200 3.1618 1.0000
40.3400 5.1901 1.0000
40.3600 10.3433 1.0000
40.3800 6.3910 1.0000
40.4000 10.5747 1.0000
40.4200 3.2002 1.0000
40.4400 5.2841 1.0000
40.4600 3.2260 1.0000
40.4800 5.2589 1.0000
40.5000 5.2129 1.0000
40.5200 6.2891 1.0000
40.5400 6.1598 1.0000
40.5600 3.1672 1.0000
40.5800 5.2663 1.0000
40.6000 7.3228 1.0000
40.6200 5.3102 1.0000
40.6400 7.6253 1.0000
40.6600 7.2997 1.0000
40.6800 4.5042 1.0000
40.7000 11.6172 1.0000
40.7200 6.3171 1.0000
40.7400 8.7239 1.0000
40.7600 9.4774 1.0000
40.7800 10.8092 1.0000
40.8000 2.1269 1.0000
40.8200 4.2600 1.0000
40.8400 3.1561 1.0000
40.8600 10.3325 1.0000
40.8800 9.5115 1.0000
40.9000 4.4427 1.0000
40.9200 2.0994 1.0000
40.9400 1.0691 1.0000
40.9600 3.0916 1.0000
40.9800 1.0736 1.0000
41.0000 3.2306 1.0000
41.0200 5.3968 1.0000
41.0400 3.0827 1.0000
41.0600 8.4627 1.0000
41.0800 5.2628 1.0000
41.1000 5.7520 1.0000
41.1200 1.0261 1.0000
41.1400 8.4087 1.0000
41.1600 5.3927 1.0000
41.1800 2.1013 1.0000
41.2000 3.1829 1.0000
41.2200 6.4716 1.0000
41.2400 6.5331 1.0000
41.2600 5.2766 1.0000
41.2800 5.3148 1.0000
41.3000 5.6388 1.0000
41.3200 7.2074 1.0000
41.3400 3.2083 1.0000
41.3600 8.3982 1.0000
41.3800 6.3865 1.0000
41.4000 5.3651 1.0000
41.4200 7.4232 1.0000
41.4400 9.7130 1.0000
41.4600 6.4632 1.0000
41.4800 7.2400 1.0000
41.5000 5.6003 1.0000
41.5200 5.3141 1.0000
41.5400 6.2697 1.0000
41.5600 3.1450 1.0000
41.5800 6.1894 1.0000
41.6000 4.1962 1.0000
41.6200 3.1699 1.0000
41.6400 8.9184 1.0000
41.6600 6.4209 1.0000
41.6800 8.5110 1.0000
41.7000 5.1731 1.0000
41.7200 7.3937 1.0000
41.7400 8.4669 1.0000
41.7600 11.5417 1.0000
41.7800 7.2318 1.0000
41.8000 8.4103 1.0000
41.8200 3.1864 1.0000
41.8400 6.3043 1.0000
41.8600 5.3767 1.0000
41.8800 8.4555 1.0000
41.9000 2.4041 1.0000
41.9200 6.1811 1.0000
41.9400 4.2621 1.0000
41.9600 5.3454 1.0000
41.9800 3.2264 1.0000
42.0000 2.1195 1.0000
42.0200 7.4729 1.0000
42.0400 3.1576 1.0000
42.0600 6.2296 1.0000
42.0800 4.1890 1.0000
42.1000 5.4842 1.0000
42.1200 7.2907 1.0000
42.1400 6.3686 1.0000
42.1600 4.3426 1.0000
42.1800 4.2513 1.0000
42.2000 4.1372 1.0000
42.2200 5.3828 1.0000
42.2400 7.5198 1.0000
42.2600 5.1651 1.0000
42.2800 7.2866 1.0000
42.3000 3.1995 1.0000
42.3200 8.5251 1.0000
42.3400 5.4150 1.0000
42.3600 3.1486 1.0000
42.3800 6.3042 1.0000
42.4000 8.8034 1.0000
42.4200 7.3967 1.0000
42.4400 6.6699 1.0000
42.4600 5.3470 1.0000
42.4800 6.3848 1.0000
42.5000 5.2308 1.0000
42.5200 4.2417 1.0000
42.5400 8.5059 1.0000
42.5600 4.2577 1.0000
42.5800 6.3003 1.0000
42.6000 7.3081 1.0000
42.6200 5.2262 1.0000
42.6400 7.4246 1.0000
42.6600 7.3916 1.0000
42.6800 10.5228 1.0000
42.7000 7.3607 1.0000
42.7200 4.2821 1.0000
42.7400 6.3252 1.0000
42.7600 2.1183 1.0000
42.7800 2.1193 1.0000
42.8000 10.5064 1.0000
42.8200 12.8154 1.0000
42.8400 6.3320 1.0000
42.8600 7.4243 1.0000
42.8800 4.2100 1.0000
42.9000 7.3896 1.0000
42.9200 7.4314 1.0000
42.9400 4.2607 1.0000
42.9600 11.5033 1.0000
42.9800 12.7252 1.0000
43.0000 12.6347 1.0000
43.0200 3.1575 1.0000
43.0400 8.2894 1.0000
43.0600 8.4109 1.0000
43.0800 5.2229 1.0000
43.1000 6.4656 1.0000
43.1200 10.3959 1.0000
43.1400 6.5130 1.0000
43.1600 3.1472 1.0000
43.1800 4.2538 1.0000
43.2000 9.5496 1.0000
43.2200 3.1888 1.0000
43.2400 5.1714 1.0000
43.2600 3.2253 1.0000
43.2800 7.4750 1.0000
43.3000 10.4492 1.0000
43.3200 6.3167 1.0000
43.3400 8.3553 1.0000
43.3600 7.2870 1.0000
43.3800 1.4243 1.0000
43.4000 7.7260 1.0000
43.4200 7.3125 1.0000
43.4400 6.2868 1.0000
43.4600 4.1714 1.0000
43.4800 4.1770 1.0000
43.5000 5.3572 1.0000
43.5200 2.0991 1.0000
43.5400 5.2027 1.0000
43.5600 5.2803 1.0000
43.5800 14.7851 1.0000
43.6000 3.5801 1.0000
43.6200 7.4556 1.0000
43.6400 2.1608 1.0000
43.6600 10.5225 1.0000
43.6800 4.1001 1.0000
43.7000 6.6581 1.0000
43.7200 6.3298 1.0000
43.7400 6.3397 1.0000
43.7600 5.1865 1.0000
43.7800 5.6096 1.0000
43.8000 7.4277 1.0000
43.8200 5.3384 1.0000
43.8400 9.5602 1.0000
43.8600 7.2662 1.0000
43.8800 9.5088 1.0000
43.9000 6.3828 1.0000
43.9200 3.2425 1.0000
43.9400 9.3167 1.0000
43.9600 3.1783 1.0000
43.9800 3.1290 1.0000
44.0000 7.4576 1.0000
44.0200 3.2951 1.0000
44.0400 5.6696 1.0000
44.0600 5.2017 1.0000
44.0800 7.4695 1.0000
44.1000 5.3510 1.0000
44.1200 4.2774 1.0000
44.1400 5.2895 1.0000
44.1600 11.5856 1.0000
44.1800 9.5162 1.0000
44.2000 10.6791 1.0000
44.2200 2.0581 1.0000
44.2400 5.4243 1.0000
44.2600 10.5655 1.0000
44.2800 10.6630 1.0000
44.3000 9.4666 1.0000
44.3200 11.4560 1.0000
44.3400 4.1172 1.0000
44.3600 3.1282 1.0000
44.3800 8.4887 1.0000
44.4000 7.4735 1.0000
44.4200 8.5584 1.0000
44.4400 5.2388 1.0000
44.4600 6.4691 1.0000
44.4800 10.3461 1.0000
44.5000 10.4828 1.0000
44.5200 6.4345 1.0000
44.5400 6.2910 1.0000
44.5600 10.5981 1.0000
44.5800 6.3990 1.0000
44.6000 5.2836 1.0000
44.6200 7.3005 1.0000
44.6400 5.3372 1.0000
44.6600 8.4367 1.0000
44.6800 8.7986 1.0000
44.7000 11.6361 1.0000
44.7200 11.5745 1.0000
44.7400 7.5061 1.0000
44.7600 7.3626 1.0000
44.7800 5.3767 1.0000
44.8000 7.3802 1.0000
44.8200 9.5776 1.0000
44.8400 9.6002 1.0000
44.8600 3.2294 1.0000
44.8800 6.3200 1.0000
44.9000 9.8184 1.0000
44.9200 4.1824 1.0000
44.9400 11.6484 1.0000
44.9600 10.5952 1.0000
44.9800 6.2188 1.0000
45.0000 8.3789 1.0000
45.0200 8.5039 1.0000
45.0400 4.2324 1.0000
45.0600 7.3036 1.0000
45.0800 7.3314 1.0000
45.1000 6.2686 1.0000
45.1200 7.2361 1.0000
45.1400 13.6531 1.0000
45.1600 16.8816 1.0000
45.1800 6.1705 1.0000
45.2000 5.3498 1.0000
45.2200 9.4931 1.0000
45.2400 5.2436 1.0000
45.2600 4.1962 1.0000
45.2800 3.1407 1.0000
45.3000 7.4617 1.0000
45.3200 9.4770 1.0000
45.3400 9.3232 1.0000
45.3600 7.3988 1.0000
45.3800 9.3533 1.0000
45.4000 12.7601 1.0000
45.4200 10.4768 1.0000
45.4400 12.4636 1.0000
45.4600 7.3441 1.0000
45.4800 12.6344 1.0000
45.5000 7.8698 1.0000
45.5200 10.8427 1.0000
45.5400 10.8171 1.0000
45.5600 8.3891 1.0000
45.5800 11.6048 1.0000
45.6000 9.3647 1.0000
45.6200 15.7465 1.0000
45.6400 9.4426 1.0000
45.6600 12.7093 1.0000
45.6800 14.8721 1.0000
45.7000 5.3777 1.0000
45.7200 8.3725 1.0000
45.7400 17.9145 1.0000
45.7600 15.8992 1.0000
45.7800 5.3581 1.0000
45.8000 19.4277 1.0000
45.8200 23.2104 1.0000
45.8400 8.5417 1.0000
45.8600 9.3352 1.0000
45.8800 14.7617 1.0000
45.9000 9.4007 1.0000
45.9200 11.1605 1.0000
45.9400 11.7856 1.0000
45.9600 16.9955 1.0000
45.9800 13.8520 1.0000
46.0000 20.7308 1.0000
46.0200 14.8622 1.0000
46.0400 8.8144 1.0000
46.0600 19.1988 1.0000
46.0800 12.6100 1.0000
46.1000 13.7026 1.0000
46.1200 22.0993 1.0000
46.1400 14.7134 1.0000
46.1600 5.1591 1.0000
46.1800 32.1153 1.0000
46.2000 10.5861 1.0000
46.2200 12.7276 1.0000
46.2400 14.8872 1.0000
46.2600 15.8150 1.0000
46.2800 20.6109 1.0000
46.3000 19.1146 1.0000
46.3200 17.8649 1.0000
46.3400 14.7426 1.0000
46.3600 14.8011 1.0000
46.3800 14.7459 1.0000
46.4000 22.0280 1.0000
46.4200 16.7006 1.0000
46.4400 18.2776 1.0000
46.4600 18.7803 1.0000
46.4800 15.8389 1.0000
46.5000 19.2388 1.0000
46.5200 22.0626 1.0000
46.5400 19.1780 1.0000
46.5600 24.8375 1.0000
46.5800 14.6801 1.0000
46.6000 24.1313 1.0000
46.6200 21.9790 1.0000
46.6400 16.8713 1.0000
46.6600 26.5375 1.0000
46.6800 22.1909 1.0000
46.7000 28.5361 1.0000
46.7200 25.0031 1.0000
46.7400 29.2152 1.0000
46.7600 22.1003 1.0000
46.7800 34.1726 1.0000
46.8000 25.3341 1.0000
46.8200 38.6033 1.0000
46.8400 38.1324 1.0000
46.8600 44.5472 1.0000
46.8800 34.9288 1.0000
46.9000 41.3213 1.0000
46.9200 31.2987 1.0000
46.9400 37.1575 1.0000
46.9600 47.4282 1.0000
46.9800 43.6288 1.0000
47.0000 52.9269 1.0000
47.0200 54.8363 1.0000
47.0400 40.1971 1.0000
47.0600 59.1489 1.0000
47.0800 51.7712 1.0000
47.1000 43.4567 1.0000
47.1200 44.9791 1.0000
47.1400 54.9997 1.0000
47.1600 48.6982 1.0000
47.1800 50.2624 1.0000
47.2000 47.4678 1.0000
47.2200 54.5396 1.0000
47.2400 71.4379 1.0000
47.2600 76.7893 1.0000
47.2800 74.0630 1.0000
47.3000 68.8005 1.0000
47.3200 80.1200 1.0000
47.3400 75.8777 1.0000
47.3600 94.8589 1.0000
47.3800 91.5637 1.0000
47.4000 96.0020 1.0000
47.4200 120.1024 1.0000
47.4400 124.5298 1.0000
47.4600 140.2125 1.0000
47.4800 151.5158 1.0000
47.5000 158.9689 1.0000
47.5200 156.6188 1.0000
47.5400 183.2318 1.0000
47.5600 208.5638 1.0000
47.5800 210.6212 1.0000
47.6000 266.9556 1.0000
47.6200 260.7840 1.0000
47.6400 302.7287 1.0000
47.6600 360.0504 1.0000
47.6800 385.2288 1.0000
47.7000 466.0763 1.0000
47.7200 532.1918 1.0000
47.7400 616.5305 1.0000
47.7600 758.8580 1.0000
47.7800 924.9424 1.0000
47.8000 1246.6428 1.0000
47.8200 1542.4097 1.0000
47.8400 2165.4373 1.0000
47.8600 3020.1277 1.0000
47.8800 4723.3887 1.0000
47.9000 8197.6563 1.0000
47.9200 21557.6367 1.0000
47.9400 213089.0313 1.0000
47.9600 1338211.7500 1.0000
47.9800 948335.1875 1.0000
48.0000 971494.3750 1.0000
48.0200 185699.3438 1.0000
48.0400 22401.4160 1.0000
48.0600 7340.2358 1.0000
48.0800 4016.4377 1.0000
48.1000 2641.4209 1.0000
48.1200 1817.2528 1.0000
48.1400 1329.1230 1.0000
48.1600 1029.6300 1.0000
48.1800 822.8289 1.0000
48.2000 691.1035 1.0000
48.2200 584.6696 1.0000
48.2400 481.5438 1.0000
48.2600 411.0609 1.0000
48.2800 390.0749 1.0000
48.3000 364.2630 1.0000
48.3200 296.2646 1.0000
48.3400 229.8413 1.0000
48.3600 243.0865 1.0000
48.3800 179.4638 1.0000
48.4000 167.5568 1.0000
48.4200 159.1816 1.0000
48.4400 180.5240 1.0000
48.4600 151.8794 1.0000
48.4800 145.0500 1.0000
48.5000 160.4920 1.0000
48.5200 117.2277 1.0000
48.5400 107.3276 1.0000
48.5600 115.1289 1.0000
48.5800 78.6047 1.0000
48.6000 82.3806 1.0000
48.6200 84.9849 1.0000
48.6400 81.6638 1.0000
48.6600 94.8878 1.0000
48.6800 70.5108 1.0000
48.7000 57.0730 1.0000
48.7200 49.5072 1.0000
48.7400 58.8686 1.0000
48.7600 49.6269 1.0000
48.7800 48.7908 1.0000
48.8000 69.7607 1.0000
48.8200 56.3474 1.0000
48.8400 47.2505 1.0000
48.8600 47.1495 1.0000
48.8800 37.5980 1.0000
48.9000 45.9876 1.0000
48.9200 45.1142 1.0000
48.9400 56.9320 1.0000
48.9600 41.4132 1.0000
48.9800 37.2566 1.0000
49.0000 42.0640 1.0000
49.0200 48.6004 1.0000
49.0400 32.7468 1.0000
49.0600 45.2595 1.0000
49.0800 37.1997 1.0000
49.1000 23.3958 1.0000
49.1200 23.2588 1.0000
49.1400 27.6663 1.0000
49.1600 25.1713 1.0000
49.1800 19.8472 1.0000
49.2000 16.9178 1.0000
49.2200 24.3154 1.0000
49.2400 26.1621 1.0000
49.2600 17.8205 1.0000
49.2800 14.6484 1.0000
49.3000 24.4354 1.0000
49.3200 21.2990 1.0000
49.3400 26.7441 1.0000
49.3600 19.7284 1.0000
49.3800 28.5887 1.0000
49.4000 16.8481 1.0000
49.4200 25.8651 1.0000
49.4400 16.9182 1.0000
49.4600 23.4800 1.0000
49.4800 14.7075 1.0000
49.5000 19.3935 1.0000
49.5200 13.9738 1.0000
49.5400 23.2953 1.0000
49.5600 14.7598 1.0000
49.5800 14.8677 1.0000
49.6000 16.8394 1.0000
49.6200 16.8617 1.0000
49.6400 14.9937 1.0000
49.6600 11.5152 1.0000
49.6800 13.7495 1.0000
49.7000 14.7764 1.0000
49.7200 11.4277 1.0000
49.7400 17.9500 1.0000
49.7600 15.2265 1.0000
49.7800 14.1542 1.0000
49.8000 6.2880 1.0000
49.8200 18.8424 1.0000
49.8400 8.4622 1.0000
49.8600 10.6670 1.0000
49.8800 19.2722 1.0000
49.9000 10.5243 1.0000
49.9200 14.7184 1.0000
49.9400 10.6190 1.0000
49.9600 14.8618 1.0000
49.9800 9.5782 1.0000
50.0000 12.7725 1.0000
50.0200 9.5996 1.0000
50.0400 8.6846 1.0000
50.0600 10.6283 1.0000
50.0800 11.6771 1.0000
50.1000 17.9874 1.0000
50.1200 9.3573 1.0000
50.1400 9.5123 1.0000
50.1600 11.5407 1.0000
50.1800 13.6493 1.0000
50.2000 12.6918 1.0000
50.2200 5.2813 1.0000
50.2400 14.8307 1.0000
50.2600 13.3639 1.0000
50.2800 6.5427 1.0000
50.3000 7.5501 1.0000
50.3200 7.2821 1.0000
50.3400 12.7801 1.0000
50.3600 6.3267 1.0000
50.3800 8.3604 1.0000
50.4000 9.5186 1.0000
50.4200 7.3371 1.0000
50.4400 6.3432 1.0000
50.4600 6.2480 1.0000
50.4800 5.3573 1.0000
50.5000 9.4634 1.0000
50.5200 8.3498 1.0000
50.5400 11.6440 1.0000
50.5600 13.0404 1.0000
50.5800 13.7765 1.0000
50.6000 5.3225 1.0000
50.6200 5.1911 1.0000
50.6400 7.5368 1.0000
50.6600 9.5544 1.0000
50.6800 3.1749 1.0000
50.7000 8.3940 1.0000
50.7200 6.3269 1.0000
50.7400 6.6541 1.0000
50.7600 9.3833 1.0000
50.7800 6.2991 1.0000
50.8000 6.2943 1.0000
50.8200 7.4749 1.0000
50.8400 7.3072 1.0000
50.8600 11.4599 1.0000
50.8800 9.5833 1.0000
50.9000 9.5078 1.0000
50.9200 5.2644 1.0000
50.9400 6.4125 1.0000
50.9600 6.2645 1.0000
50.9800 8.3365 1.0000
51.0000 4.5440 1.0000
51.0200 7.4407 1.0000
51.0400 3.1713 1.0000
51.0600 5.3718 1.0000
51.0800 6.2534 1.0000
51.1000 6.3658 1.0000
51.1200 4.2943 1.0000
51.1400 8.6153 1.0000
51.1600 5.6713 1.0000
51.1800 2.1290 1.0000
51.2000 7.3588 1.0000
51.2200 9.5356 1.0000
51.2400 11.7090 1.0000
51.2600 4.1771 1.0000
51.2800 10.3715 1.0000
51.3000 4.1711 1.0000
51.3200 6.4709 1.0000
51.3400 6.2904 1.0000
51.3600 7.3965 1.0000
51.3800 8.7719 1.0000
51.4000 2.0270 1.0000
51.4200 3.2090 1.0000
51.4400 3.2716 1.0000
51.4600 1.0360 1.0000
51.4800 3.1988 1.0000
51.5000 5.3284 1.0000
51.5200 5.3041 1.0000
51.5400 5.2383 1.0000
51.5600 4.1013 1.0000
51.5800 4.1043 1.0000
51.6000 6.2219 1.0000
51.6200 2.1233 1.0000
51.6400 7.3430 1.0000
51.6600 5.3254 1.0000
51.6800 5.2175 1.0000
51.7000 3.1609 1.0000
51.7200 2.0918 1.0000
51.7400 5.1938 1.0000
51.7600 4.1943 1.0000
51.7800 4.2511 1.0000
51.8000 9.4262 1.0000
51.8200 6.7371 1.0000
51.8400 3.0763 1.0000
51.8600 2.1577 1.0000
51.8800 7.3051 1.0000
51.9000 5.3160 1.0000
51.9200 4.2316 1.0000
51.9400 4.2350 1.0000
51.9600 4.5322 1.0000
51.9800 6.2990 1.0000
52.0000 6.2720 1.0000
52.0200 5.3642 1.0000
52.0400 5.2977 1.0000
52.0600 5.1992 1.0000
52.0800 5.2938 1.0000
52.1000 5.2319 1.0000
52.1200 6.4172 1.0000
52.1400 5.1869 1.0000
52.1600 5.2995 1.0000
52.1800 3.1426 1.0000
52.2000 5.2925 1.0000
52.2200 4.2084 1.0000
52.2400 5.3262 1.0000
52.2600 5.3121 1.0000
52.2800 4.1519 1.0000
52.3000 4.2293 1.0000
52.3200 7.4822 1.0000
52.3400 3.1239 1.0000
52.3600 5.3104 1.0000
52.3800 3.1598 1.0000
52.4000 5.2559 1.0000
52.4200 7.3479 1.0000
52.4400 8.7169 1.0000
52.4600 2.1342 1.0000
52.4800 6.3288 1.0000
52.5000 4.1432 1.0000
52.5200 6.2902 1.0000
52.5400 9.5480 1.0000
52.5600 7.5331 1.0000
52.5800 4.1361 1.0000
52.6000 2.0789 1.0000
52.6200 5.1594 1.0000
52.6400 6.2369 1.0000
52.6600 3.1784 1.0000
52.6800 4.5980 1.0000
52.7000 4.2077 1.0000
52.7200 1.0375 1.0000
52.7400 5.3167 1.0000
52.7600 2.1030 1.0000
52.7800 5.2689 1.0000
52.8000 7.3495 1.0000
52.8200 6.4580 1.0000
52.8400 6.3880 1.0000
52.8600 5.6450 1.0000
52.8800 2.0938 1.0000
52.9000 5.3146 1.0000
52.9200 2.1397 1.0000
52.9400 2.0996 1.0000
52.9600 7.3636 1.0000
52.9800 3.1203 1.0000
53.0000 7.8099 1.0000
53.0200 5.4615 1.0000
53.0400 0.0000 1.0000
53.0600 2.1239 1.0000
53.0800 3.3779 1.0000
53.1000 5.4091 1.0000
53.1200 4.1992 1.0000
53.1400 4.3160 1.0000
53.1600 5.2813 1.0000
53.1800 0.0000 1.0000
53.2000 5.2629 1.0000
53.2200 3.2843 1.0000
53.2400 4.2759 1.0000
53.2600 3.1930 1.0000
53.2800 6.3110 1.0000
53.3000 3.4930 1.0000
53.3200 4.4305 1.0000
53.3400 5.1813 1.0000
53.3600 3.1033 1.0000
53.3800 2.1579 1.0000
53.4000 1.1302 1.0000
53.4200 2.2270 1.0000
53.4400 5.4067 1.0000
53.4600 4.1687 1.0000
53.4800 9.4188 1.0000
53.5000 2.1628 1.0000
53.5200 7.2965 1.0000
53.5400 2.4908 1.0000
53.5600 8.5255 1.0000
53.5800 3.1743 1.0000
53.6000 3.1536 1.0000
53.6200 7.4777 1.0000
53.6400 6.3958 1.0000
53.6600 3.1850 1.0000
53.6800 8.5552 1.0000
53.7000 3.0692 1.0000
53.7200 8.4074 1.0000
53.7400 4.1954 1.0000
53.7600 4.2203 1.0000
53.7800 1.0314 1.0000
53.8000 4.2668 1.0000
53.8200 4.2985 1.0000
53.8400 4.2431 1.0000
53.8600 1.0446 1.0000
53.8800 2.0243 1.0000
53.9000 5.3755 1.0000
53.9200 6.3077 1.0000
53.9400 5.3540 1.0000
53.9600 0.0000 1.0000
53.9800 5.2902 1.0000
54.0000 3.1701 1.0000
54.0200 2.1329 1.0000
54.0400 4.2000 1.0000
54.0600 1.0027 1.0000
54.0800 4.2660 1.0000
54.1000 6.4060 1.0000
54.1200 2.1040 1.0000
54.1400 3.1164 1.0000
54.1600 2.0138 1.0000
54.1800 4.2254 1.0000
54.2000 1.0796 1.0000
54.2200 3.2249 1.0000
54.2400 1.0598 1.0000
54.2600 3.1652 1.0000
54.2800 4.1590 1.0000
54.3000 5.4146 1.0000
54.3200 1.0361 1.0000
54.3400 4.3967 1.0000
54.3600 2.0813 1.0000
54.3800 5.2270 1.0000
54.4000 3.1704 1.0000
54.4200 7.2370 1.0000
54.4400 5.1835 1.0000
54.4600 4.2027 1.0000
54.4800 3.4736 1.0000
54.5000 1.0451 1.0000
54.5200 3.1808 1.0000
54.5400 5.2177 1.0000
54.5600 4.3367 1.0000
54.5800 3.2274 1.0000
54.6000 8.4796 1.0000
54.6200 3.1621 1.0000
54.6400 6.2047 1.0000
54.6600 2.1485 1.0000
54.6800 5.3264 1.0000
54.7000 4.2000 1.0000
54.7200 6.3066 1.0000
54.7400 1.0491 1.0000
54.7600 6.3084 1.0000
54.7800 4.1315 1.0000
54.8000 1.0169 1.0000
54.8200 4.1705 1.0000
54.8400 8.4872 1.0000
54.8600 2.1325 1.0000
54.8800 4.1978 1.0000
54.9000 6.3832 1.0000
54.9200 8.5702 1.0000
54.9400 3.1950 1.0000
54.9600 3.1727 1.0000
54.9800 2.0557 1.0000
55.0000 3.0679 1.0000
55.0200 7.4929 1.0000
55.0400 4.1789 1.0000
55.0600 2.0629 1.0000
55.0800 3.1491 1.0000
55.1000 1.1328 1.0000
55.1200 5.2093 1.0000
55.1400 2.0868 1.0000
55.1600 6.5164 1.0000
55.1800 3.2222 1.0000
55.2000 4.3035 1.0000
55.2200 1.0421 1.0000
55.2400 3.1193 1.0000
55.2600 4.2367 1.0000
55.2800 4.1653 1.0000
55.3000 2.0687 1.0000
55.3200 4.2358 1.0000
55.3400 4.2758 1.0000
55.3600 3.1867 1.0000
55.3800 2.0832 1.0000
55.4000 3.1622 1.0000
55.4200 3.0998 1.0000
55.4400 3.1401 1.0000
55.4600 3.2177 1.0000
55.4800 1.0620 1.0000
55.5000 5.2660 1.0000
55.5200 3.1560 1.0000
55.5400 1.0177 1.0000
55.5600 6.3166 1.0000
55.5800 3.4957 1.0000
55.6000 7.4598 1.0000
55.6200 1.0249 1.0000
55.6400 1.0959 1.0000
55.6600 6.3476 1.0000
55.6800 1.0547 1.0000
55.7000 5.3472 1.0000
55.7200 4.5946 1.0000
55.7400 6.2947 1.0000
55.7600 2.1963 1.0000
55.7800 3.1166 1.0000
55.8000 5.3412 1.0000
55.8200 4.2102 1.0000
55.8400 3.1405 1.0000
55.8600 3.2113 1.0000
55.8800 1.0589 1.0000
55.9000 6.2287 1.0000
55.9200 5.1693 1.0000
55.9400 5.3840 1.0000
55.9600 2.1873 1.0000
55.9800 3.1009 1.0000
56.0000 6.3574 1.0000
56.0200 3.1543 1.0000
56.0400 4.1670 1.0000
56.0600 1.0254 1.0000
56.0800 4.2225 1.0000
56.1000 2.1323 1.0000
56.1200 6.3241 1.0000
56.1400 4.1681 1.0000
56.1600 4.1395 1.0000
56.1800 4.1997 1.0000
56.2000 2.0774 1.0000
56.2200 5.2803 1.0000
56.2400 0.0000 1.0000
56.2600 3.1527 1.0000
56.2800 3.1638 1.0000
56.3000 3.2228 1.0000
56.3200 1.0616 1.0000
56.3400 2.0933 1.0000
56.3600 7.3315 1.0000
56.3800 6.3515 1.0000
56.4000 3.0680 1.0000
56.4200 1.0537 1.0000
56.4400 4.1503 1.0000
56.4600 3.1442 1.0000
56.4800 5.4097 1.0000
56.5000 7.3604 1.0000
56.5200 2.1115 1.0000
56.5400 2.0160 1.0000
56.5600 3.1811 1.0000
56.5800 5.3622 1.0000
56.6000 4.1198 1.0000
56.6200 4.1388 1.0000
56.6400 5.2406 1.0000
56.6600 6.4434 1.0000
56.6800 3.1810 1.0000
56.7000 4.2255 1.0000
56.7200 3.1851 1.0000
56.7400 4.3315 1.0000
56.7600 5.2506 1.0000
56.7800 4.2486 1.0000
56.8000 3.1374 1.0000
56.8200 3.0788 1.0000
56.8400 3.1733 1.0000
56.8600 1.0762 1.0000
56.8800 2.0982 1.0000
56.9000 3.1590 1.0000
56.9200 2.2410 1.0000
56.9400 2.4721 1.0000
56.9600 5.2050 1.0000
56.9800 2.1040 1.0000
57.0000 6.2591 1.0000
57.0200 6.2405 1.0000
57.0400 2.1968 1.0000
57.0600 3.1721 1.0000
57.0800 3.5739 1.0000
57.1000 1.0423 1.0000
57.1200 3.1706 1.0000
57.1400 5.2586 1.0000
57.1600 4.2261 1.0000
57.1800 1.0156 1.0000
57.2000 1.0734 1.0000
57.2200 1.0767 1.0000
57.2400 3.1733 1.0000
57.2600 2.9999 1.0000
57.2800 4.2973 1.0000
57.3000 3.1110 1.0000
57.3200 4.3593 1.0000
57.3400 2.0370 1.0000
57.3600 4.2052 1.0000
57.3800 0.0000 1.0000
57.4000 0.0000 1.0000
57.4200 4.1960 1.0000
57.4400 3.1212 1.0000
57.4600 3.0812 1.0000
57.4800 3.1876 1.0000
57.5000 7.1614 1.0000
57.5200 4.1477 1.0000
57.5400 1.1188 1.0000
57.5600 4.2768 1.0000
57.5800 5.3677 1.0000
57.6000 5.2468 1.0000
57.6200 1.0744 1.0000
57.6400 5.2318 1.0000
57.6600 3.1233 1.0000
57.6800 4.1928 1.0000
57.7000 6.3785 1.0000
57.7200 2.1121 1.0000
57.7400 7.4537 1.0000
57.7600 4.2975 1.0000
57.7800 4.2758 1.0000
57.8000 3.0798 1.0000
57.8200 8.4750 1.0000
57.8400 2.0994 1.0000
57.8600 1.0388 1.0000
57.8800 5.3054 1.0000
57.9000 6.1980 1.0000
57.9200 3.1548 1.0000
57.9400 2.0834 1.0000
57.9600 4.2756 1.0000
57.9800 6.2882 1.0000
58.0000 2.1217 1.0000
58.0200 4.1813 1.0000
58.0400 6.7587 1.0000
58.0600 3.1267 1.0000
58.0800 3.1501 1.0000
58.1000 4.1702 1.0000
58.1200 6.2371 1.0000
58.1400 5.2895 1.0000
58.1600 0.0000 1.0000
58.1800 5.2392 1.0000
58.2000 5.3431 1.0000
58.2200 1.0071 1.0000
58.2400 2.1025 1.0000
58.2600 3.1695 1.0000
58.2800 2.1174 1.0000
58.3000 3.1551 1.0000
58.3200 3.4564 1.0000
58.3400 4.1779 1.0000
58.3600 4.2286 1.0000
58.3800 3.1689 1.0000
58.4000 3.0718 1.0000
58.4200 2.0483 1.0000
58.4400 4.1370 1.0000
58.4600 1.0260 1.0000
58.4800 5.2995 1.0000
58.5000 1.0596 1.0000
58.5200 4.2304 1.0000
58.5400 1.0992 1.0000
58.5600 2.0796 1.0000
58.5800 6.4407 1.0000
58.6000 2.0904 1.0000
58.6200 6.3916 1.0000
58.6400 4.2030 1.0000
58.6600 4.2922 1.0000
58.6800 3.1299 1.0000
58.7000 4.1843 1.0000
58.7200 7.3768 1.0000
58.7400 7.3695 1.0000
58.7600 5.1574 1.0000
58.7800 3.2021 1.0000
58.8000 4.1688 1.0000
58.8200 1.0846 1.0000
58.8400 4.2083 1.0000
58.8600 7.4866 1.0000
58.8800 3.1824 1.0000
58.9000 4.2052 1.0000
58.9200 3.1000 1.0000
58.9400 5.3584 1.0000
58.9600 3.2010 1.0000
58.9800 3.1058 1.0000
59.0000 5.2333 1.0000
59.0200 2.0794 1.0000
59.0400 1.0330 1.0000
59.0600 3.2066 1.0000
59.0800 4.1807 1.0000
59.1000 8.4119 1.0000
59.1200 6.2176 1.0000
59.1400 3.1096 1.0000
59.1600 4.2171 1.0000
59.1800 4.1996 1.0000
59.2000 5.1782 1.0000
59.2200 5.4224 1.0000
59.2400 3.2349 1.0000
59.2600 6.4086 1.0000
59.2800 0.0000 1.0000
59.3000 3.0441 1.0000
59.3200 2.0837 1.0000
59.3400 3.2327 1.0000
59.3600 3.1810 1.0000
59.3800 4.1942 1.0000
59.4000 7.4595 1.0000
59.4200 3.1150 1.0000
59.4400 5.5462 1.0000
59.4600 1.0693 1.0000
59.4800 0.0000 1.0000
59.5000 5.2912 1.0000
59.5200 5.1231 1.0000
59.5400 3.1594 1.0000
59.5600 2.0628 1.0000
59.5800 2.1520 1.0000
59.6000 0.0000 1.0000
59.6200 7.3705 1.0000
59.6400 4.1508 1.0000
59.6600 1.0289 1.0000
59.6800 4.2203 1.0000
59.7000 3.2204 1.0000
59.7200 3.1561 1.0000
59.7400 3.2130 1.0000
59.7600 2.0525 1.0000
59.7800 1.0278 1.0000
59.8000 4.2018 1.0000
59.8200 2.0918 1.0000
59.8400 1.0260 1.0000
59.8600 2.1270 1.0000
59.8800 4.5434 1.0000
59.9000 4.2362 1.0000
59.9200 2.0536 1.0000
59.9400 2.1663 1.0000
59.9600 4.5735 1.0000
59.9800 3.1978 1.0000
60.0000 5.2764 1.0000
60.0200 3.1707 1.0000
60.0400 4.5744 1.0000
60.0600 4.1887 1.0000
60.0800 5.2872 1.0000
60.1000 3.1106 1.0000
60.1200 3.1297 1.0000
60.1400 3.1500 1.0000
60.1600 4.3434 1.0000
60.1800 3.2505 1.0000
60.2000 4.2082 1.0000
60.2200 3.3009 1.0000
60.2400 1.0328 1.0000
60.2600 0.0000 1.0000
60.2800 3.1589 1.0000
60.3000 1.0323 1.0000
60.3200 2.1680 1.0000
60.3400 1.0723 1.0000
60.3600 6.3006 1.0000
60.3800 6.4070 1.0000
60.4000 7.3689 1.0000
60.4200 3.1356 1.0000
60.4400 2.0834 1.0000
60.4600 4.3233 1.0000
60.4800 3.2263 1.0000
60.5000 2.0801 1.0000
60.5200 6.3794 1.0000
60.5400 1.0595 1.0000
60.5600 4.3034 1.0000
60.5800 0.0000 1.0000
60.6000 5.2885 1.0000
60.6200 6.3072 1.0000
60.6400 3.1407 1.0000
60.6600 3.1726 1.0000
60.6800 2.1855 1.0000
60.7000 3.1549 1.0000
60.7200 4.2365 1.0000
60.7400 2.0516 1.0000
60.7600 3.1896 1.0000
60.7800 1.0287 1.0000
60.8000 3.1323 1.0000
60.8200 0.9971 1.0000
60.8400 5.2914 1.0000
60.8600 4.2211 1.0000
60.8800 1.0889 1.0000
60.9000 3.2025 1.0000
60.9200 4.2313 1.0000
60.9400 6.2676 1.0000
60.9600 3.2377 1.0000
60.9800 4.1673 1.0000
61.0000 1.0856 1.0000
61.0200 3.2526 1.0000
61.0400 1.0894 1.0000
61.0600 5.1906 1.0000
61.0800 2.1121 1.0000
61.1000 6.2443 1.0000
61.1200 4.1678 1.0000
61.1400 4.1182 1.0000
61.1600 2.1316 1.0000
61.1800 2.1616 1.0000
61.2000 1.0679 1.0000
61.2200 2.1594 1.0000
61.2400 2.1121 1.0000
61.2600 3.1256 1.0000
61.2800 4.1533 1.0000
61.3000 2.1192 1.0000
61.3200 1.0388 1.0000
61.3400 4.1754 1.0000
61.3600 2.1085 1.0000
61.3800 2.1353 1.0000
61.4000 3.1717 1.0000
61.4200 2.0648 1.0000
61.4400 4.2544 1.0000
61.4600 0.0000 1.0000
61.4800 4.2116 1.0000
61.5000 1.0354 1.0000
61.5200 0.0000 1.0000
61.5400 2.1720 1.0000
61.5600 3.2005 1.0000
61.5800 4.2291 1.0000
61.6000 3.1628 1.0000
61.6200 6.1734 1.0000
61.6400 4.2887 1.0000
61.6600 4.2236 1.0000
61.6800 7.2518 1.0000
61.7000 8.4853 1.0000
61.7200 6.3889 1.0000
61.7400 3.1682 1.0000
61.7600 4.1649 1.0000
61.7800 6.3557 1.0000
61.8000 4.2248 1.0000
61.8200 0.9989 1.0000
61.8400 2.0325 1.0000
61.8600 3.1083 1.0000
61.8800 4.3608 1.0000
61.9000 1.0504 1.0000
61.9200 8.3714 1.0000
61.9400 1.0617 1.0000
61.9600 4.2736 1.0000
61.9800 1.0499 1.0000
62.0000 2.1075 1.0000
62.0200 3.1968 1.0000
62.0400 4.5680 1.0000
62.0600 2.1553 1.0000
62.0800 4.2893 1.0000
62.1000 4.3142 1.0000
62.1200 5.1952 1.0000
62.1400 1.0871 1.0000
62.1600 1.0207 1.0000
62.1800 1.0320 1.0000
62.2000 4.0916 1.0000
62.2200 0.0000 1.0000
62.2400 1.1064 1.0000
62.2600 6.3019 1.0000
62.2800 4.1551 1.0000
62.3000 3.2020 1.0000
62.3200 3.1735 1.0000
62.3400 2.1059 1.0000
62.3600 2.0608 1.0000
62.3800 1.0694 1.0000
62.4000 6.3790 1.0000
62.4200 4.2023 1.0000
62.4400 2.0951 1.0000
62.4600 5.2637 1.0000
62.4800 4.3162 1.0000
62.5000 0.0000 1.0000
62.5200 4.1859 1.0000
62.5400 6.3247 1.0000
62.5600 3.1942 1.0000
62.5800 4.2397 1.0000
62.6000 5.2691 1.0000
62.6200 3.1180 1.0000
62.6400 2.1475 1.0000
62.6600 1.0625 1.0000
62.6800 1.0287 1.0000
62.7000 1.0351 1.0000
62.7200 3.2044 1.0000
62.7400 5.2939 1.0000
62.7600 4.2529 1.0000
62.7800 4.4774 1.0000
62.8000 1.0311 1.0000
62.8200 3.1018 1.0000
62.8400 4.2749 1.0000
62.8600 3.1198 1.0000
62.8800 1.0917 1.0000
62.9000 0.0000 1.0000
62.9200 4.2902 1.0000
62.9400 3.1602 1.0000
62.9600 6.4897 1.0000
62.9800 2.0910 1.0000
63.0000 5.2235 1.0000
63.0200 3.0839 1.0000
63.0400 4.1528 1.0000
63.0600 4.2927 1.0000
63.0800 2.1144 1.0000
63.1000 3.1970 1.0000
63.1200 4.2098 1.0000
63.1400 2.1434 1.0000
63.1600 1.0690 1.0000
63.1800 5.2932 1.0000
63.2000 2.0948 1.0000
63.2200 0.0000 1.0000
63.2400 4.1498 1.0000
63.2600 3.2657 1.0000
63.2800 3.1021 1.0000
63.3000 4.1289 1.0000
63.3200 1.0251 1.0000
63.3400 3.1504 1.0000
63.3600 4.0941 1.0000
63.3800 3.1253 1.0000
63.4000 8.5521 1.0000
63.4200 5.3108 1.0000
63.4400 5.2377 1.0000
63.4600 3.1957 1.0000
63.4800 3.1427 1.0000
63.5000 3.2294 1.0000
63.5200 3.1101 1.0000
63.5400 5.2299 1.0000
63.5600 1.0862 1.0000
63.5800 6.3276 1.0000
63.6000 2.1041 1.0000
63.6200 5.3377 1.0000
63.6400 2.1237 1.0000
63.6600 2.1130 1.0000
63.6800 1.0404 1.0000
63.7000 3.1758 1.0000
63.7200 2.1301 1.0000
63.7400 5.2421 1.0000
63.7600 4.3455 1.0000
63.7800 3.2329 1.0000
63.8000 2.0822 1.0000
63.8200 3.2577 1.0000
63.8400 2.0825 1.0000
63.8600 3.2620 1.0000
63.8800 3.1652 1.0000
63.9000 1.0436 1.0000
63.9200 3.1142 1.0000
63.9400 2.1190 1.0000
63.9600 2.1174 1.0000
63.9800 2.1427 1.0000
64.0000 0.0000 1.0000
64.0200 5.2428 1.0000
64.0400 2.1007 1.0000
64.0600 1.0468 1.0000
64.0800 3.1255 1.0000
64.1000 1.0211 1.0000
64.1200 5.2650 1.0000
64.1400 3.1655 1.0000
64.1600 0.0000 1.0000
64.1800 6.3605 1.0000
64.2000 5.3308 1.0000
64.2200 3.1636 1.0000
64.2400 4.1510 1.0000
64.2600 4.2228 1.0000
64.2800 2.1299 1.0000
64.3000 2.1128 1.0000
64.3200 2.0646 1.0000
64.3400 1.0203 1.0000
64.3600 7.3981 1.0000
64.3800 5.6514 1.0000
64.4000 4.2081 1.0000
64.4200 2.0817 1.0000
64.4400 4.3003 1.0000
64.4600 1.0543 1.0000
64.4800 0.0000 1.0000
64.5000 1.0822 1.0000
64.5200 1.0159 1.0000
64.5400 5.2053 1.0000
64.5600 2.0832 1.0000
64.5800 3.1623 1.0000
64.6000 1.0479 1.0000
64.6200 6.3112 1.0000
64.6400 1.0496 1.0000
64.6600 3.2270 1.0000
64.6800 3.1478 1.0000
64.7000 2.1005 1.0000
64.7200 6.3326 1.0000
64.7400 1.0256 1.0000
64.7600 4.2777 1.0000
64.7800 2.1926 1.0000
64.8000 3.3446 1.0000
64.8200 4.2232 1.0000
64.8400 10.0013 1.0000
64.8600 5.3516 1.0000
64.8800 2.2411 1.0000
64.9000 1.1253 1.0000
64.9200 3.1814 1.0000
64.9400 2.4751 1.0000
64.9600 2.1021 1.0000
64.9800 1.3610 1.0000
65.0000 1.0738 1.0000
65.0200 2.1744 1.0000
65.0400 1.0449 1.0000
65.0600 4.2148 1.0000
65.0800 2.1057 1.0000
65.1000 4.2554 1.0000
65.1200 2.1932 1.0000
65.1400 3.1871 1.0000
65.1600 1.0613 1.0000
65.1800 2.1601 1.0000
65.2000 1.0608 1.0000
65.2200 3.1426 1.0000
65.2400 6.3619 1.0000
65.2600 2.1225 1.0000
65.2800 2.0694 1.0000
65.3000 2.1258 1.0000
65.3200 4.1689 1.0000
65.3400 0.0000 1.0000
65.3600 3.1446 1.0000
65.3800 3.2147 1.0000
65.4000 4.1794 1.0000
65.4200 2.1372 1.0000
65.4400 5.2456 1.0000
65.4600 2.1250 1.0000
65.4800 5.2724 1.0000
65.5000 0.0000 1.0000
65.5200 3.2244 1.0000
65.5400 3.1061 1.0000
65.5600 3.1363 1.0000
65.5800 1.0371 1.0000
65.6000 2.0748 1.0000
65.6200 5.3004 1.0000
65.6400 4.1730 1.0000
65.6600 2.1818 1.0000
65.6800 4.1899 1.0000
65.7000 1.0984 1.0000
65.7200 3.1860 1.0000
65.7400 1.0651 1.0000
65.7600 0.0000 1.0000
65.7800 3.2299 1.0000
65.8000 3.1262 1.0000
65.8200 3.1033 1.0000
65.8400 0.0000 1.0000
65.8600 2.1557 1.0000
65.8800 3.2001 1.0000
65.9000 1.0162 1.0000
65.9200 2.0760 1.0000
65.9400 2.2543 1.0000
65.9600 2.1835 1.0000
65.9800 4.1063 1.0000
66.0000 2.0742 1.0000
66.0200 1.0324 1.0000
66.0400 2.1185 1.0000
66.0600 5.2552 1.0000
66.0800 4.2833 1.0000
66.1000 5.2682 1.0000
66.1200 2.0896 1.0000
66.1400 1.0199 1.0000
66.1600 3.2231 1.0000
66.1800 5.2590 1.0000
66.2000 2.1169 1.0000
66.2200 2.2131 1.0000
66.2400 2.1309 1.0000
66.2600 6.2663 1.0000
66.2800 3.0885 1.0000
66.3000 2.1073 1.0000
66.3200 4.3035 1.0000
66.3400 3.1335 1.0000
66.3600 1.0350 1.0000
66.3800 1.0778 1.0000
66.4000 2.0797 1.0000
66.4200 7.4555 1.0000
66.4400 4.1765 1.0000
66.4600 2.1076 1.0000
66.4800 3.1579 1.0000
66.5000 4.2409 1.0000
66.5200 5.6103 1.0000
66.5400 5.2273 1.0000
66.5600 1.0474 1.0000
66.5800 1.0293 1.0000
66.6000 5.3399 1.0000
66.6200 3.1870 1.0000
66.6400 4.2228 1.0000
66.6600 3.1970 1.0000
66.6800 1.0470 1.0000
66.7000 6.3439 1.0000
66.7200 5.3191 1.0000
66.7400 3.1219 1.0000
66.7600 1.0778 1.0000
66.7800 4.1578 1.0000
66.8000 1.0459 1.0000
66.8200 0.0000 1.0000
66.8400 1.0525 1.0000
66.8600 1.0464 1.0000
66.8800 3.1271 1.0000
66.9000 5.1864 1.0000
66.9200 2.0710 1.0000
66.9400 3.1573 1.0000
66.9600 1.0518 1.0000
66.9800 1.0224 1.0000
67.0000 4.2517 1.0000
67.0200 3.1187 1.0000
67.0400 3.2718 1.0000
67.0600 5.2329 1.0000
67.0800 4.1581 1.0000
67.1000 3.1268 1.0000
67.1200 2.1114 1.0000
67.1400 6.3366 1.0000
67.1600 2.1575 1.0000
67.1800 4.1468 1.0000
67.2000 2.0841 1.0000
67.2200 0.0000 1.0000
67.2400 0.0000 1.0000
67.2600 5.3796 1.0000
67.2800 3.1504 1.0000
67.3000 1.0694 1.0000
67.3200 2.4836 1.0000
67.3400 3.1042 1.0000
67.3600 3.1321 1.0000
67.3800 5.3069 1.0000
67.4000 4.2560 1.0000
67.4200 4.1842 1.0000
67.4400 3.1609 1.0000
67.4600 2.0519 1.0000
67.4800 1.0373 1.0000
67.5000 4.1583 1.0000
67.5200 5.5647 1.0000
67.5400 2.1986 1.0000
67.5600 2.0863 1.0000
67.5800 3.2347 1.0000
67.6000 3.2710 1.0000
67.6200 5.4322 1.0000
67.6400 5.4935 1.0000
67.6600 4.2631 1.0000
67.6800 4.1469 1.0000
67.7000 0.0000 1.0000
67.7200 4.1461 1.0000
67.7400 1.4228 1.0000
67.7600 1.1116 1.0000
67.7800 4.1564 1.0000
67.8000 2.1188 1.0000
67.8200 1.0672 1.0000
67.8400 3.1013 1.0000
67.8600 1.0096 1.0000
67.8800 4.3057 1.0000
67.9000 2.1331 1.0000
67.9200 1.1137 1.0000
67.9400 1.0798 1.0000
67.9600 5.3224 1.0000
67.9800 2.1817 1.0000
68.0000 3.1984 1.0000
68.0200 1.0423 1.0000
68.0400 3.1242 1.0000
68.0600 7.3553 1.0000
68.0800 1.0309 1.0000
68.1000 1.0992 1.0000
68.1200 5.3721 1.0000
68.1400 3.1044 1.0000
68.1600 0.0000 1.0000
68.1800 5.2843 1.0000
68.2000 1.0017 1.0000
68.2200 4.2430 1.0000
68.2400 0.0000 1.0000
68.2600 1.0389 1.0000
68.2800 3.0193 1.0000
68.3000 2.0246 1.0000
68.3200 4.2721 1.0000
68.3400 3.1405 1.0000
68.3600 2.1367 1.0000
68.3800 3.1463 1.0000
68.4000 3.2205 1.0000
68.4200 7.2819 1.0000
68.4400 2.0863 1.0000
68.4600 1.1273 1.0000
68.4800 1.0096 1.0000
68.5000 2.1695 1.0000
68.5200 2.1246 1.0000
68.5400 4.1802 1.0000
68.5600 3.2855 1.0000
68.5800 2.1334 1.0000
68.6000 3.2181 1.0000
68.6200 3.1122 1.0000
68.6400 1.0759 1.0000
68.6600 4.2640 1.0000
68.6800 5.3159 1.0000
68.7000 5.3119 1.0000
68.7200 3.0641 1.0000
68.7400 4.1551 1.0000
68.7600 4.1632 1.0000
68.7800 1.0553 1.0000
68.8000 3.1566 1.0000
68.8200 1.0152 1.0000
68.8400 2.1087 1.0000
68.8600 2.0828 1.0000
68.8800 3.1626 1.0000
68.9000 4.0691 1.0000
68.9200 1.1075 1.0000
68.9400 4.1948 1.0000
68.9600 3.1743 1.0000
68.9800 5.4267 1.0000
69.0000 2.1665 1.0000
69.0200 4.2769 1.0000
69.0400 3.2268 1.0000
69.0600 4.2712 1.0000
69.0800 2.0824 1.0000
69.1000 1.0282 1.0000
69.1200 1.0605 1.0000
69.1400 2.0689 1.0000
69.1600 3.2166 1.0000
69.1800 1.1068 1.0000
69.2000 5.2618 1.0000
69.2200 5.1957 1.0000
69.2400 4.2775 1.0000
69.2600 2.1372 1.0000
69.2800 7.3484 1.0000
69.3000 1.0288 1.0000
69.3200 1.0464 1.0000
69.3400 1.0468 1.0000
69.3600 6.5115 1.0000
69.3800 2.0752 1.0000
69.4000 1.0444 1.0000
69.4200 2.0559 1.0000
69.4400 0.0000 1.0000
69.4600 3.1267 1.0000
69.4800 4.2373 1.0000
69.5000 0.0000 1.0000
69.5200 2.4336 1.0000
69.5400 3.0546 1.0000
69.5600 2.1527 1.0000
69.5800 9.4654 1.0000
69.6000 3.1147 1.0000
69.6200 0.0000 1.0000
69.6400 4.1940 1.0000
69.6600 2.1318 1.0000
69.6800 3.1860 1.0000
69.7000 3.0824 1.0000
69.7200 3.2026 1.0000
69.7400 5.2530 1.0000
69.7600 1.0192 1.0000
69.7800 1.0295 1.0000
69.8000 2.3896 1.0000
69.8200 4.2200 1.0000
69.8400 3.1505 1.0000
69.8600 1.0398 1.0000
69.8800 3.2010 1.0000
69.9000 4.2457 1.0000
69.9200 0.0000 1.0000
69.9400 3.1963 1.0000
69.9600 3.1358 1.0000
69.9800 5.3336 1.0000
70.0000 3.1379 1.0000
70.0200 1.4205 1.0000
70.0400 3.1658 1.0000
70.0600 3.1750 1.0000
70.0800 1.0992 1.0000
70.1000 2.1665 1.0000
70.1200 3.2073 1.0000
70.1400 3.1122 1.0000
70.1600 2.0541 1.0000
70.1800 1.0253 1.0000
70.2000 1.0577 1.0000
70.2200 0.0000 1.0000
70.2400 2.0854 1.0000
70.2600 3.0762 1.0000
70.2800 3.1939 1.0000
70.3000 3.2308 1.0000
70.3200 3.2165 1.0000
70.3400 2.1726 1.0000
70.3600 1.0528 1.0000
70.3800 4.2360 1.0000
70.4000 4.2259 1.0000
70.4200 5.4341 1.0000
70.4400 4.1830 1.0000
70.4600 2.0417 1.0000
70.4800 3.1733 1.0000
70.5000 1.0274 1.0000
70.5200 1.0207 1.0000
70.5400 1.0119 1.0000
70.5600 2.0566 1.0000
70.5800 0.0000 1.0000
70.6000 3.1298 1.0000
70.6200 4.2622 1.0000
70.6400 2.0887 1.0000
70.6600 3.1933 1.0000
70.6800 2.0598 1.0000
70.7000 4.2108 1.0000
70.7200 3.0976 1.0000
70.7400 2.1293 1.0000
70.7600 0.0000 1.0000
70.7800 8.3972 1.0000
70.8000 3.2205 1.0000
70.8200 1.0549 1.0000
70.8400 5.1477 1.0000
70.8600 0.0000 1.0000
70.8800 1.0694 1.0000
70.9000 2.0964 1.0000
70.9200 0.0000 1.0000
70.9400 3.1235 1.0000
70.9600 3.1397 1.0000
70.9800 4.1675 1.0000
71.0000 1.0407 1.0000
71.0200 4.5932 1.0000
71.0400 5.6266 1.0000
71.0600 5.2313 1.0000
71.0800 4.1729 1.0000
71.1000 3.3192 1.0000
71.1200 0.0000 1.0000
71.1400 6.2781 1.0000
71.1600 0.3384 1.0000
71.1800 1.0340 1.0000
71.2000 1.0315 1.0000
71.2200 2.0613 1.0000
71.2400 2.1202 1.0000
71.2600 1.0271 1.0000
71.2800 4.1708 1.0000
71.3000 4.2339 1.0000
71.3200 4.2026 1.0000
71.3400 1.1095 1.0000
71.3600 1.0228 1.0000
71.3800 4.1877 1.0000
71.4000 2.1161 1.0000
71.4200 2.4403 1.0000
71.4400 3.1300 1.0000
71.4600 2.0809 1.0000
71.4800 2.1060 1.0000
71.5000 3.1296 1.0000
71.5200 4.1985 1.0000
71.5400 3.1687 1.0000
71.5600 4.2259 1.0000
71.5800 5.1868 1.0000
71.6000 2.1098 1.0000
71.6200 3.0607 1.0000
71.6400 1.0864 1.0000
71.6600 6.3266 1.0000
71.6800 2.1131 1.0000
71.7000 3.0812 1.0000
71.7200 1.0968 1.0000
71.7400 2.4561 1.0000
71.7600 2.1705 1.0000
71.7800 3.0796 1.0000
71.8000 2.0779 1.0000
71.8200 3.1814 1.0000
71.8400 3.2398 1.0000
71.8600 6.3296 1.0000
71.8800 3.4842 1.0000
71.9000 7.2787 1.0000
71.9200 7.3443 1.0000
71.9400 1.0334 1.0000
71.9600 2.0371 1.0000
71.9800 4.1994 1.0000
72.0000 4.1274 1.0000
72.0200 4.2982 1.0000
72.0400 3.1964 1.0000
72.0600 2.2454 1.0000
72.0800 5.2923 1.0000
72.1000 3.1939 1.0000
72.1200 4.2451 1.0000
72.1400 3.2082 1.0000
72.1600 2.0832 1.0000
72.1800 3.1441 1.0000
72.2000 4.2057 1.0000
72.2200 1.1302 1.0000
72.2400 2.0780 1.0000
72.2600 5.3049 1.0000
72.2800 5.2141 1.0000
72.3000 4.3232 1.0000
72.3200 3.1306 1.0000
72.3400 3.1883 1.0000
72.3600 4.2589 1.0000
72.3800 3.2017 1.0000
72.4000 4.2684 1.0000
72.4200 4.0963 1.0000
72.4400 3.1497 1.0000
72.4600 2.1571 1.0000
72.4800 4.1808 1.0000
72.5000 2.0496 1.0000
72.5200 3.1797 1.0000
72.5400 5.1538 1.0000
72.5600 3.1338 1.0000
72.5800 8.4290 1.0000
72.6000 2.0169 1.0000
72.6200 5.2344 1.0000
72.6400 3.1296 1.0000
72.6600 3.2927 1.0000
72.6800 3.2386 1.0000
72.7000 7.3429 1.0000
72.7200 5.3508 1.0000
72.7400 3.1981 1.0000
72.7600 2.1436 1.0000
72.7800 2.1003 1.0000
72.8000 2.1410 1.0000
72.8200 3.1074 1.0000
72.8400 5.2246 1.0000
72.8600 2.1038 1.0000
72.8800 4.2247 1.0000
72.9000 1.0743 1.0000
72.9200 3.1338 1.0000
72.9400 3.2526 1.0000
72.9600 2.1694 1.0000
72.9800 7.4267 1.0000
73.0000 6.3283 1.0000
73.0200 7.6933 1.0000
73.0400 3.2671 1.0000
73.0600 5.2570 1.0000
73.0800 3.1764 1.0000
73.1000 2.1564 1.0000
73.1200 4.2423 1.0000
73.1400 5.3620 1.0000
73.1600 3.1073 1.0000
73.1800 2.1258 1.0000
73.2000 3.2639 1.0000
73.2200 5.3032 1.0000
73.2400 4.2820 1.0000
73.2600 2.0913 1.0000
73.2800 4.2255 1.0000
73.3000 6.7662 1.0000
73.3200 2.2046 1.0000
73.3400 2.1185 1.0000
73.3600 3.1927 1.0000
73.3800 5.3064 1.0000
73.4000 3.0913 1.0000
73.4200 4.3198 1.0000
73.4400 4.1961 1.0000
73.4600 4.2533 1.0000
73.4800 2.1387 1.0000
73.5000 3.1499 1.0000
73.5200 3.1255 1.0000
73.5400 2.1669 1.0000
73.5600 3.0894 1.0000
73.5800 5.1750 1.0000
73.6000 3.1372 1.0000
73.6200 0.0000 1.0000
73.6400 1.0242 1.0000
73.6600 2.0547 1.0000
73.6800 6.3526 1.0000
73.7000 8.3538 1.0000
73.7200 4.5779 1.0000
73.7400 3.0888 1.0000
73.7600 4.2400 1.0000
73.7800 4.2387 1.0000
73.8000 3.2273 1.0000
73.8200 4.1491 1.0000
73.8400 1.4119 1.0000
73.8600 5.2784 1.0000
73.8800 3.1583 1.0000
73.9000 6.2775 1.0000
73.9200 7.3025 1.0000
73.9400 7.3280 1.0000
73.9600 6.3692 1.0000
73.9800 5.2986 1.0000
74.0000 5.6125 1.0000
74.0200 6.4077 1.0000
74.0400 7.3017 1.0000
74.0600 6.3165 1.0000
74.0800 6.3182 1.0000
74.1000 6.3502 1.0000
74.1200 5.3313 1.0000
74.1400 5.3367 1.0000
74.1600 4.2506 1.0000
74.1800 6.2812 1.0000
74.2000 3.2017 1.0000
74.2200 3.1640 1.0000
74.2400 5.2294 1.0000
74.2600 2.1283 1.0000
74.2800 7.7720 1.0000
74.3000 13.8510 1.0000
74.3200 5.3446 1.0000
74.3400 8.2421 1.0000
74.3600 4.2540 1.0000
74.3800 6.7629 1.0000
74.4000 10.5659 1.0000
74.4200 5.2959 1.0000
74.4400 7.8070 1.0000
74.4600 11.6492 1.0000
74.4800 8.5414 1.0000
74.5000 8.8083 1.0000
74.5200 10.6447 1.0000
74.5400 11.5767 1.0000
74.5600 14.7895 1.0000
74.5800 15.6631 1.0000
74.6000 9.5471 1.0000
74.6200 13.6238 1.0000
74.6400 12.6742 1.0000
74.6600 12.8794 1.0000
74.6800 18.4486 1.0000
74.7000 24.3426 1.0000
74.7200 19.7835 1.0000
74.7400 23.7295 1.0000
74.7600 24.2775 1.0000
74.7800 32.6335 1.0000
74.8000 28.3883 1.0000
74.8200 23.5569 1.0000
74.8400 38.9954 1.0000
74.8600 40.3920 1.0000
74.8800 49.4824 1.0000
74.9000 52.7862 1.0000
74.9200 61.4252 1.0000
74.9400 59.6279 1.0000
74.9600 92.9337 1.0000
74.9800 125.9686 1.0000
75.0000 140.3689 1.0000
75.0200 235.7496 1.0000
75.0400 342.0367 1.0000
75.0600 681.1656 1.0000
75.0800 2715.0879 1.0000
75.1000 17816.1191 1.0000
75.1200 114425.7500 1.0000
75.1400 193491.8125 1.0000
75.1600 182910.5625 1.0000
75.1800 99051.8516 1.0000
75.2000 14534.7754 1.0000
75.2200 1978.6533 1.0000
75.2400 652.0446 1.0000
75.2600 356.1865 1.0000
75.2800 232.2643 1.0000
75.3000 127.1380 1.0000
75.3200 100.9509 1.0000
75.3400 91.3731 1.0000
75.3600 66.8096 1.0000
75.3800 49.2006 1.0000
75.4000 57.5696 1.0000
75.4200 36.2180 1.0000
75.4400 43.4505 1.0000
75.4600 36.7013 1.0000
75.4800 23.9260 1.0000
75.5000 27.3400 1.0000
75.5200 16.8365 1.0000
75.5400 26.3586 1.0000
75.5600 19.6367 1.0000
75.5800 17.4969 1.0000
75.6000 18.0773 1.0000
75.6200 16.1413 1.0000
75.6400 18.6761 1.0000
75.6600 5.5844 1.0000
75.6800 13.9346 1.0000
75.7000 8.9256 1.0000
75.7200 12.6434 1.0000
75.7400 14.5983 1.0000
75.7600 8.3830 1.0000
75.7800 12.6613 1.0000
75.8000 3.2314 1.0000
75.8200 15.8311 1.0000
75.8400 9.4457 1.0000
75.8600 2.7364 1.0000
75.8800 7.4164 1.0000
75.9000 7.2904 1.0000
75.9200 8.3713 1.0000
75.9400 8.4625 1.0000
75.9600 5.3807 1.0000
75.9800 3.5389 1.0000
76.0000 9.4444 1.0000
76.0200 5.5184 1.0000
76.0400 3.0893 1.0000
76.0600 6.3683 1.0000
76.0800 11.4292 1.0000
76.1000 8.5208 1.0000
76.1200 4.3362 1.0000
76.1400 2.1217 1.0000
76.1600 6.4083 1.0000
76.1800 6.4985 1.0000
76.2000 6.3000 1.0000
76.2200 7.6913 1.0000
76.2400 1.0803 1.0000
76.2600 5.2946 1.0000
76.2800 9.4839 1.0000
76.3000 5.3160 1.0000
76.3200 8.3694 1.0000
76.3400 6.3623 1.0000
76.3600 5.2828 1.0000
76.3800 3.0769 1.0000
76.4000 5.6684 1.0000
76.4200 7.2115 1.0000
76.4400 1.0196 1.0000
76.4600 4.2544 1.0000
76.4800 2.1231 1.0000
76.5000 5.2917 1.0000
76.5200 5.6447 1.0000
76.5400 5.1814 1.0000
76.5600 4.2939 1.0000
76.5800 2.0747 1.0000
76.6000 6.3620 1.0000
76.6200 6.2905 1.0000
76.6400 3.1308 1.0000
76.6600 5.2444 1.0000
76.6800 4.2135 1.0000
76.7000 4.1693 1.0000
76.7200 3.4977 1.0000
76.7400 4.2548 1.0000
76.7600 4.3090 1.0000
76.7800 2.0637 1.0000
76.8000 5.2377 1.0000
76.8200 3.1376 1.0000
76.8400 5.3696 1.0000
76.8600 6.2509 1.0000
76.8800 3.2394 1.0000
76.9000 4.1697 1.0000
76.9200 6.4732 1.0000
76.9400 3.0699 1.0000
76.9600 2.0717 1.0000
76.9800 2.1356 1.0000
77.0000 4.2167 1.0000
77.0200 1.0778 1.0000
77.0400 2.4649 1.0000
77.0600 3.0533 1.0000
77.0800 3.2697 1.0000
77.1000 2.0720 1.0000
77.1200 2.0919 1.0000
77.1400 1.0253 1.0000
77.1600 6.2777 1.0000
77.1800 2.1043 1.0000
77.2000 4.2632 1.0000
77.2200 4.2683 1.0000
77.2400 1.0649 1.0000
77.2600 5.2828 1.0000
77.2800 1.0239 1.0000
77.3000 4.2042 1.0000
77.3200 2.0656 1.0000
77.3400 5.3469 1.0000
77.3600 5.2102 1.0000
77.3800 0.0000 1.0000
77.4000 4.1556 1.0000
77.4200 3.1451 1.0000
77.4400 4.8213 1.0000
77.4600 3.1856 1.0000
77.4800 0.0000 1.0000
77.5000 4.1208 1.0000
77.5200 4.2212 1.0000
77.5400 2.1057 1.0000
77.5600 6.3208 1.0000
77.5800 4.2247 1.0000
77.6000 2.1413 1.0000
77.6200 3.1649 1.0000
77.6400 3.1548 1.0000
77.6600 1.0994 1.0000
77.6800 3.0894 1.0000
77.7000 3.1522 1.0000
77.7200 1.0737 1.0000
77.7400 5.3077 1.0000
77.7600 6.4200 1.0000
77.7800 1.0133 1.0000
77.8000 3.1041 1.0000
77.8200 4.2401 1.0000
77.8400 4.1540 1.0000
77.8600 5.3036 1.0000
77.8800 6.3466 1.0000
77.9000 5.2647 1.0000
77.9200 4.2925 1.0000
77.9400 4.1741 1.0000
77.9600 2.3925 1.0000
77.9800 4.2195 1.0000
78.0000 5.2556 1.0000
78.0200 4.1262 1.0000
78.0400 6.3442 1.0000
78.0600 2.1292 1.0000
78.0800 0.3466 1.0000
78.1000 5.3062 1.0000
78.1200 3.1279 1.0000
78.1400 3.1859 1.0000
78.1600 3.1775 1.0000
78.1800 3.0781 1.0000
78.2000 4.1103 1.0000
78.2200 1.0439 1.0000
78.2400 3.1384 1.0000
78.2600 4.1671 1.0000
78.2800 3.2338 1.0000
78.3000 2.0851 1.0000
78.3200 4.1992 1.0000
78.3400 5.2819 1.0000
78.3600 3.1361 1.0000
78.3800 3.2378 1.0000
78.4000 2.1745 1.0000
78.4200 2.0988 1.0000
78.4400 3.1804 1.0000
78.4600 2.1190 1.0000
78.4800 0.0000 1.0000
78.5000 6.3074 1.0000
78.5200 4.2723 1.0000
78.5400 2.1189 1.0000
78.5600 3.1369 1.0000
78.5800 6.1158 1.0000
78.6000 2.0542 1.0000
78.6200 5.3635 1.0000
78.6400 5.2236 1.0000
78.6600 2.0994 1.0000
78.6800 2.0675 1.0000
78.7000 3.2004 1.0000
78.7200 4.2533 1.0000
78.7400 2.1157 1.0000
78.7600 1.0608 1.0000
78.7800 4.3417 1.0000
78.8000 1.0469 1.0000
78.8200 2.0960 1.0000
78.8400 2.0865 1.0000
78.8600 1.0358 1.0000
78.8800 4.1913 1.0000
78.9000 3.0933 1.0000
78.9200 4.1080 1.0000
78.9400 2.0732 1.0000
78.9600 7.2710 1.0000
78.9800 4.3039 1.0000
79.0000 0.0000 1.0000
79.0200 3.1635 1.0000
79.0400 1.0316 1.0000
79.0600 4.2207 1.0000
79.0800 0.0000 1.0000
79.1000 1.0636 1.0000
79.1200 3.3157 1.0000
79.1400 2.1129 1.0000
79.1600 1.1106 1.0000
79.1800 3.1160 1.0000
79.2000 4.1305 1.0000
79.2200 6.3656 1.0000
79.2400 4.1903 1.0000
79.2600 3.1332 1.0000
79.2800 3.1835 1.0000
79.3000 1.0882 1.0000
79.3200 4.2301 1.0000
79.3400 3.0780 1.0000
79.3600 3.1879 1.0000
79.3800 1.0951 1.0000
79.4000 2.1250 1.0000
79.4200 5.2911 1.0000
79.4400 3.2215 1.0000
79.4600 1.4544 1.0000
79.4800 1.1263 1.0000
79.5000 4.1450 1.0000
79.5200 3.1280 1.0000
79.5400 4.2006 1.0000
79.5600 6.3067 1.0000
79.5800 4.1731 1.0000
79.6000 3.1922 1.0000
79.6200 3.1436 1.0000
79.6400 3.1723 1.0000
79.6600 7.3550 1.0000
79.6800 2.0828 1.0000
79.7000 5.1734 1.0000
79.7200 0.0000 1.0000
79.7400 3.2235 1.0000
79.7600 0.0000 1.0000
79.7800 5.2796 1.0000
79.8000 2.0998 1.0000
79.8200 1.0184 1.0000
79.8400 3.2027 1.0000
79.8600 2.0864 1.0000
79.8800 2.4152 1.0000
79.9000 3.1968 1.0000
79.9200 2.0554 1.0000
79.9400 2.0654 1.0000
79.9600 1.0953 1.0000
79.9800 1.0375 1.0000
80.0000 4.1119 1.0000
80.0200 1.0570 1.0000
80.0400 3.2268 1.0000
80.0600 2.0786 1.0000
80.0800 2.1679 1.0000
80.1000 4.1944 1.0000
80.1200 4.1721 1.0000
80.1400 0.0000 1.0000
80.1600 2.0565 1.0000
80.1800 4.5819 1.0000
80.2000 1.0356 1.0000
80.2200 0.0000 1.0000
80.2400 4.1816 1.0000
80.2600 2.0492 1.0000
80.2800 2.1190 1.0000
80.3000 4.1285 1.0000
80.3200 3.2170 1.0000
80.3400 2.1977 1.0000
80.3600 4.1819 1.0000
80.3800 3.1985 1.0000
80.4000 1.0839 1.0000
80.4200 1.0812 1.0000
80.4400 3.1565 1.0000
80.4600 1.0250 1.0000
80.4800 3.1803 1.0000
80.5000 2.0873 1.0000
80.5200 7.5504 1.0000
80.5400 2.0963 1.0000
80.5600 4.2060 1.0000
80.5800 7.3227 1.0000
80.6000 1.0610 1.0000
80.6200 3.0950 1.0000
80.6400 3.5290 1.0000
80.6600 4.2554 1.0000
80.6800 0.0000 1.0000
80.7000 3.1848 1.0000
80.7200 2.1357 1.0000
80.7400 3.1600 1.0000
80.7600 4.2725 1.0000
80.7800 1.0310 1.0000
80.8000 1.0153 1.0000
80.8200 3.1863 1.0000
80.8400 4.2516 1.0000
80.8600 3.2092 1.0000
80.8800 0.0000 1.0000
80.9000 1.1066 1.0000
80.9200 2.0461 1.0000
80.9400 2.0862 1.0000
80.9600 2.1544 1.0000
80.9800 3.2182 1.0000
81.0000 2.1580 1.0000
81.0200 5.2386 1.0000
81.0400 2.0793 1.0000
81.0600 4.2750 1.0000
81.0800 3.5353 1.0000
81.1000 3.1576 1.0000
81.1200 1.0204 1.0000
81.1400 1.0589 1.0000
81.1600 5.3896 1.0000
81.1800 3.2196 1.0000
81.2000 0.0000 1.0000
81.2200 4.1892 1.0000
81.2400 4.2584 1.0000
81.2600 1.0298 1.0000
81.2800 4.3187 1.0000
81.3000 3.1039 1.0000
81.3200 2.1049 1.0000
81.3400 2.1158 1.0000
81.3600 2.0153 1.0000
81.3800 5.1984 1.0000
81.4000 1.0156 1.0000
81.4200 3.2060 1.0000
81.4400 2.1207 1.0000
81.4600 3.0618 1.0000
81.4800 0.0000 1.0000
81.5000 2.2257 1.0000
81.5200 2.1183 1.0000
81.5400 3.1383 1.0000
81.5600 3.1564 1.0000
81.5800 2.1021 1.0000
81.6000 1.0543 1.0000
81.6200 2.1416 1.0000
81.6400 3.1200 1.0000
81.6600 2.1727 1.0000
81.6800 3.3759 1.0000
81.7000 2.1122 1.0000
81.7200 1.0340 1.0000
81.7400 0.0000 1.0000
81.7600 2.1678 1.0000
81.7800 2.1087 1.0000
81.8000 3.1926 1.0000
81.8200 6.3023 1.0000
81.8400 4.0870 1.0000
81.8600 5.3116 1.0000
81.8800 2.0542 1.0000
81.9000 5.1698 1.0000
81.9200 2.1351 1.0000
81.9400 1.0956 1.0000
81.9600 6.2748 1.0000
81.9800 5.3580 1.0000
82.0000 3.1790 1.0000
82.0200 3.1354 1.0000
82.0400 4.2778 1.0000
82.0600 2.1460 1.0000
82.0800 4.2036 1.0000
82.1000 2.0517 1.0000
82.1200 2.1245 1.0000
82.1400 4.1888 1.0000
82.1600 3.1405 1.0000
82.1800 3.2346 1.0000
82.2000 1.0411 1.0000
82.2200 0.3678 1.0000
82.2400 5.3002 1.0000
82.2600 1.0104 1.0000
82.2800 2.1102 1.0000
82.3000 2.1264 1.0000
82.3200 1.0472 1.0000
82.3400 5.3967 1.0000
82.3600 1.0268 1.0000
82.3800 2.0869 1.0000
82.4000 3.2129 1.0000
82.4200 2.0628 1.0000
82.4400 5.2854 1.0000
82.4600 4.3232 1.0000
82.4800 2.1747 1.0000
82.5000 3.1887 1.0000
82.5200 1.0468 1.0000
82.5400 5.3062 1.0000
82.5600 0.0000 1.0000
82.5800 0.0000 1.0000
82.6000 2.1053 1.0000
82.6200 1.0097 1.0000
82.6400 4.1295 1.0000
82.6600 2.1405 1.0000
82.6800 1.0717 1.0000
82.7000 6.4115 1.0000
82.7200 2.0968 1.0000
82.7400 2.1035 1.0000
82.7600 5.2658 1.0000
82.7800 3.2189 1.0000
82.8000 1.1005 1.0000
82.8200 3.0989 1.0000
82.8400 4.1289 1.0000
82.8600 2.1204 1.0000
82.8800 2.2018 1.0000
82.9000 3.1941 1.0000
82.9200 0.0000 1.0000
82.9400 4.2070 1.0000
82.9600 1.0478 1.0000
82.9800 2.1033 1.0000
83.0000 2.1433 1.0000
83.0200 0.0000 1.0000
83.0400 0.0000 1.0000
83.0600 4.2249 1.0000
83.0800 1.0180 1.0000
83.1000 3.1177 1.0000
83.1200 2.0390 1.0000
83.1400 2.0949 1.0000
83.1600 2.4416 1.0000
83.1800 3.1062 1.0000
83.2000 2.1410 1.0000
83.2200 5.2606 1.0000
83.2400 3.2059 1.0000
83.2600 4.2020 1.0000
83.2800 5.3333 1.0000
83.3000 2.0775 1.0000
83.3200 4.1955 1.0000
83.3400 3.0422 1.0000
83.3600 1.0261 1.0000
83.3800 4.2741 1.0000
83.4000 4.1745 1.0000
83.4200 1.0535 1.0000
83.4400 0.0000 1.0000
83.4600 2.4522 1.0000
83.4800 0.0000 1.0000
83.5000 1.0414 1.0000
83.5200 5.3383 1.0000
83.5400 3.1372 1.0000
83.5600 5.1932 1.0000
83.5800 0.0000 1.0000
83.6000 2.0126 1.0000
83.6200 2.1299 1.0000
83.6400 5.2133 1.0000
83.6600 3.2182 1.0000
83.6800 3.1411 1.0000
83.7000 3.0979 1.0000
83.7200 2.0911 1.0000
83.7400 1.0038 1.0000
83.7600 1.1047 1.0000
83.7800 2.1909 1.0000
83.8000 3.1049 1.0000
83.8200 0.0000 1.0000
83.8400 4.1404 1.0000
83.8600 1.0272 1.0000
83.8800 3.1408 1.0000
83.9000 2.1350 1.0000
83.9200 1.0621 1.0000
83.9400 1.0457 1.0000
83.9600 1.0164 1.0000
83.9800 1.0314 1.0000
84.0000 3.1906 1.0000
84.0200 0.0000 1.0000
84.0400 4.3451 1.0000
84.0600 1.0061 1.0000
84.0800 2.1017 1.0000
84.1000 1.0473 1.0000
84.1200 2.0984 1.0000
84.1400 2.0341 1.0000
84.1600 2.1362 1.0000
84.1800 4.1235 1.0000
84.2000 4.1542 1.0000
84.2200 1.1063 1.0000
84.2400 0.0000 1.0000
84.2600 3.1310 1.0000
84.2800 0.0000 1.0000
84.3000 5.2339 1.0000
84.3200 2.1183 1.0000
84.3400 0.0000 1.0000
84.3600 1.0597 1.0000
84.3800 1.0097 1.0000
84.4000 0.0000 1.0000
84.4200 4.2863 1.0000
84.4400 2.1824 1.0000
84.4600 5.2505 1.0000
84.4800 3.0737 1.0000
84.5000 4.0753 1.0000
84.5200 1.0566 1.0000
84.5400 2.2093 1.0000
84.5600 2.0077 1.0000
84.5800 3.1550 1.0000
84.6000 3.1419 1.0000
84.6200 2.0425 1.0000
84.6400 0.0000 1.0000
84.6600 2.0651 1.0000
84.6800 4.1192 1.0000
84.7000 1.0601 1.0000
84.7200 2.1830 1.0000
84.7400 0.0000 1.0000
84.7600 1.0354 1.0000
84.7800 0.0000 1.0000
84.8000 1.1127 1.0000
84.8200 0.0000 1.0000
84.8400 2.0998 1.0000
84.8600 4.1594 1.0000
84.8800 2.0200 1.0000
84.9000 3.1497 1.0000
84.9200 3.1664 1.0000
84.9400 5.2904 1.0000
84.9600 1.0783 1.0000
84.9800 3.1342 1.0000
85.0000 2.1388 1.0000
85.0200 1.0801 1.0000
85.0400 0.0000 1.0000
85.0600 2.0875 1.0000
85.0800 5.1677 1.0000
85.1000 1.0734 1.0000
85.1200 3.1438 1.0000
85.1400 1.0045 1.0000
85.1600 2.1529 1.0000
85.1800 4.1862 1.0000
85.2000 1.0449 1.0000
85.2200 1.0153 1.0000
85.2400 4.0932 1.0000
85.2600 2.2057 1.0000
85.2800 1.0498 1.0000
85.3000 2.1028 1.0000
85.3200 2.1158 1.0000
85.3400 3.1877 1.0000
85.3600 5.3003 1.0000
85.3800 1.0374 1.0000
85.4000 3.1184 1.0000
85.4200 1.0424 1.0000
85.4400 2.1150 1.0000
85.4600 1.1128 1.0000
85.4800 1.0111 1.0000
85.5000 1.0617 1.0000
85.5200 2.1557 1.0000
85.5400 1.0940 1.0000
85.5600 3.1239 1.0000
85.5800 5.2881 1.0000
85.6000 4.1673 1.0000
85.6200 4.2668 1.0000
85.6400 0.0000 1.0000
85.6600 1.0298 1.0000
85.6800 3.0568 1.0000
85.7000 3.1591 1.0000
85.7200 1.0928 1.0000
85.7400 4.2938 1.0000
85.7600 2.0769 1.0000
85.7800 8.3564 1.0000
85.8000 2.0687 1.0000
85.8200 1.0280 1.0000
85.8400 2.1080 1.0000
85.8600 1.0606 1.0000
85.8800 1.1569 1.0000
85.9000 3.5181 1.0000
85.9200 0.0000 1.0000
85.9400 6.3029 1.0000
85.9600 1.0704 1.0000
85.9800 2.0664 1.0000
86.0000 2.0745 1.0000
86.0200 2.1676 1.0000
86.0400 3.0747 1.0000
86.0600 3.1815 1.0000
86.0800 2.1082 1.0000
86.1000 0.0000 1.0000
86.1200 3.1130 1.0000
86.1400 3.2453 1.0000
86.1600 3.2107 1.0000
86.1800 3.0784 1.0000
86.2000 2.0437 1.0000
86.2200 1.0595 1.0000
86.2400 1.0795 1.0000
86.2600 3.1936 1.0000
86.2800 4.2415 1.0000
86.3000 1.0385 1.0000
86.3200 3.2420 1.0000
86.3400 1.0060 1.0000
86.3600 3.2610 1.0000
86.3800 4.1849 1.0000
86.4000 1.0885 1.0000
86.4200 3.2880 1.0000
86.4400 2.0987 1.0000
86.4600 2.0867 1.0000
86.4800 5.1613 1.0000
86.5000 3.2148 1.0000
86.5200 1.0690 1.0000
86.5400 1.0597 1.0000
86.5600 2.0560 1.0000
86.5800 2.0663 1.0000
86.6000 2.1041 1.0000
86.6200 1.0690 1.0000
86.6400 2.0849 1.0000
86.6600 3.2040 1.0000
86.6800 2.1114 1.0000
86.7000 2.0858 1.0000
86.7200 1.0297 1.0000
86.7400 2.1010 1.0000
86.7600 0.0000 1.0000
86.7800 1.0066 1.0000
86.8000 1.1013 1.0000
86.8200 3.1711 1.0000
86.8400 1.0548 1.0000
86.8600 2.1471 1.0000
86.8800 5.2651 1.0000
86.9000 1.0240 1.0000
86.9200 4.2029 1.0000
86.9400 2.1452 1.0000
86.9600 2.0888 1.0000
86.9800 2.0736 1.0000
87.0000 0.6895 1.0000
87.0200 4.1196 1.0000
87.0400 5.3089 1.0000
87.0600 2.0852 1.0000
87.0800 0.0000 1.0000
87.1000 3.2004 1.0000
87.1200 1.0526 1.0000
87.1400 3.1539 1.0000
87.1600 3.0881 1.0000
87.1800 1.0293 1.0000
87.2000 1.0945 1.0000
87.2200 5.2819 1.0000
87.2400 2.0841 1.0000
87.2600 3.1525 1.0000
87.2800 1.0315 1.0000
87.3000 0.0000 1.0000
87.3200 2.0704 1.0000
87.3400 1.0422 1.0000
87.3600 1.0794 1.0000
87.3800 0.0000 1.0000
87.4000 7.4591 1.0000
87.4200 3.1985 1.0000
87.4400 4.2065 1.0000
87.4600 0.0000 1.0000
87.4800 3.1346 1.0000
87.5000 2.0623 1.0000
87.5200 4.2366 1.0000
87.5400 2.0740 1.0000
87.5600 1.0980 1.0000
87.5800 1.1850 1.0000
87.6000 2.1124 1.0000
87.6200 3.0501 1.0000
87.6400 1.0578 1.0000
87.6600 1.0210 1.0000
87.6800 4.0728 1.0000
87.7000 2.1511 1.0000
87.7200 3.0997 1.0000
87.7400 3.2640 1.0000
87.7600 6.3444 1.0000
87.7800 2.0908 1.0000
87.8000 0.0000 1.0000
87.8200 1.0669 1.0000
87.8400 4.2391 1.0000
87.8600 4.2043 1.0000
87.8800 2.0724 1.0000
87.9000 2.0681 1.0000
87.9200 2.5046 1.0000
87.9400 4.0880 1.0000
87.9600 3.1465 1.0000
87.9800 1.3551 1.0000
88.0000 4.2137 1.0000
88.0200 2.0983 1.0000
88.0400 2.1246 1.0000
88.0600 1.0631 1.0000
88.0800 1.0159 1.0000
88.1000 5.2675 1.0000
88.1200 3.1887 1.0000
88.1400 2.0803 1.0000
88.1600 2.1497 1.0000
88.1800 3.1256 1.0000
88.2000 2.5542 1.0000
88.2200 0.0000 1.0000
88.2400 1.0608 1.0000
88.2600 2.1058 1.0000
88.2800 0.0000 1.0000
88.3000 3.1819 1.0000
88.3200 2.0891 1.0000
88.3400 3.1341 1.0000
88.3600 1.0242 1.0000
88.3800 5.3457 1.0000
88.4000 1.0257 1.0000
88.4200 1.0346 1.0000
88.4400 2.0980 1.0000
88.4600 2.0955 1.0000
88.4800 0.0000 1.0000
88.5000 4.5346 1.0000
88.5200 0.0000 1.0000
88.5400 4.2943 1.0000
88.5600 1.0602 1.0000
88.5800 2.0550 1.0000
88.6000 2.0746 1.0000
88.6200 1.0530 1.0000
88.6400 1.3397 1.0000
88.6600 3.0386 1.0000
88.6800 0.0000 1.0000
88.7000 1.1011 1.0000
88.7200 7.4133 1.0000
88.7400 4.1641 1.0000
88.7600 5.4114 1.0000
88.7800 0.0000 1.0000
88.8000 8.4643 1.0000
88.8200 6.2411 1.0000
88.8400 1.0526 1.0000
88.8600 3.1324 1.0000
88.8800 1.0299 1.0000
88.9000 3.1664 1.0000
88.9200 1.0449 1.0000
88.9400 1.0594 1.0000
88.9600 3.2050 1.0000
88.9800 2.0725 1.0000
89.0000 2.1148 1.0000
89.0200 0.0000 1.0000
89.0400 2.0584 1.0000
89.0600 3.0420 1.0000
89.0800 3.1836 1.0000
89.1000 4.1609 1.0000
89.1200 5.3573 1.0000
89.1400 2.1021 1.0000
89.1600 2.0666 1.0000
89.1800 2.0345 1.0000
89.2000 3.1103 1.0000
89.2200 2.1619 1.0000
89.2400 1.0413 1.0000
89.2600 5.2967 1.0000
89.2800 1.0480 1.0000
89.3000 2.1055 1.0000
89.3200 2.0243 1.0000
89.3400 2.1931 1.0000
89.3600 2.1357 1.0000
89.3800 1.0203 1.0000
89.4000 3.1251 1.0000
89.4200 4.2517 1.0000
89.4400 2.0515 1.0000
89.4600 3.1858 1.0000
89.4800 2.0700 1.0000
89.5000 0.0000 1.0000
89.5200 3.0959 1.0000
89.5400 3.1597 1.0000
89.5600 1.0545 1.0000
89.5800 2.0239 1.0000
89.6000 2.4276 1.0000
89.6200 3.1312 1.0000
89.6400 0.3524 1.0000
89.6600 2.0770 1.0000
89.6800 3.1811 1.0000
89.7000 3.0587 1.0000
89.7200 1.0635 1.0000
89.7400 4.2467 1.0000
89.7600 4.2763 1.0000
89.7800 3.2324 1.0000
89.8000 2.1057 1.0000
89.8200 3.2055 1.0000
89.8400 2.1169 1.0000
89.8600 2.1192 1.0000
89.8800 0.0000 1.0000
89.9000 4.1962 1.0000
89.9200 3.0923 1.0000
89.9400 2.1696 1.0000
89.9600 2.1612 1.0000
89.9800 0.0000 1.0000
90.0000 1.0468 1.0000
90.0200 2.1301 1.0000
90.0400 1.0326 1.0000
90.0600 2.0738 1.0000
90.0800 2.1455 1.0000
90.1000 0.0000 1.0000
90.1200 1.0697 1.0000
90.1400 2.1600 1.0000
90.1600 1.0442 1.0000
90.1800 3.1156 1.0000
90.2000 2.0473 1.0000
90.2200 3.2071 1.0000
90.2400 3.2257 1.0000
90.2600 3.2483 1.0000
90.2800 3.1478 1.0000
90.3000 2.1321 1.0000
90.3200 2.1587 1.0000
90.3400 2.0710 1.0000
90.3600 5.2328 1.0000
90.3800 0.0000 1.0000
90.4000 2.1326 1.0000
90.4200 2.0563 1.0000
90.4400 0.0000 1.0000
90.4600 0.0000 1.0000
90.4800 2.1029 1.0000
90.5000 2.0849 1.0000
90.5200 4.2584 1.0000
90.5400 5.2840 1.0000
90.5600 5.3114 1.0000
90.5800 2.0765 1.0000
90.6000 2.0800 1.0000
90.6200 2.2324 1.0000
90.6400 2.0708 1.0000
90.6600 1.0796 1.0000
90.6800 3.1735 1.0000
90.7000 3.5802 1.0000
90.7200 1.0203 1.0000
90.7400 4.1483 1.0000
90.7600 0.0000 1.0000
90.7800 1.0303 1.0000
90.8000 0.9704 1.0000
90.8200 3.1174 1.0000
90.8400 2.0126 1.0000
90.8600 4.1783 1.0000
90.8800 3.1301 1.0000
90.9000 0.0000 1.0000
90.9200 2.4238 1.0000
90.9400 2.0708 1.0000
90.9600 1.0862 1.0000
90.9800 1.0096 1.0000
91.0000 1.0464 1.0000
91.0200 2.1813 1.0000
91.0400 0.0000 1.0000
91.0600 3.0635 1.0000
91.0800 2.0729 1.0000
91.1000 1.0591 1.0000
91.1200 3.1673 1.0000
91.1400 4.2942 1.0000
91.1600 3.5007 1.0000
91.1800 1.0071 1.0000
91.2000 4.1182 1.0000
91.2200 0.0000 1.0000
91.2400 3.1276 1.0000
91.2600 1.0990 1.0000
91.2800 3.1513 1.0000
91.3000 1.0148 1.0000
91.3200 3.1599 1.0000
91.3400 0.0000 1.0000
91.3600 1.0665 1.0000
91.3800 2.0357 1.0000
91.4000 3.1114 1.0000
91.4200 3.1308 1.0000
91.4400 1.0714 1.0000
91.4600 4.3400 1.0000
91.4800 2.0704 1.0000
91.5000 2.0882 1.0000
91.5200 0.0000 1.0000
91.5400 2.1028 1.0000
91.5600 3.0789 1.0000
91.5800 4.5493 1.0000
91.6000 0.0000 1.0000
91.6200 3.1475 1.0000
91.6400 1.0254 1.0000
91.6600 2.0758 1.0000
91.6800 4.2154 1.0000
91.7000 0.0000 1.0000
91.7200 2.4451 1.0000
91.7400 1.1439 1.0000
91.7600 2.1470 1.0000
91.7800 2.0956 1.0000
91.8000 3.1256 1.0000
91.8200 1.0420 1.0000
91.8400 2.4407 1.0000
91.8600 3.1660 1.0000
91.8800 2.0734 1.0000
91.9000 2.4408 1.0000
91.9200 4.1507 1.0000
91.9400 0.0000 1.0000
91.9600 2.1115 1.0000
91.9800 5.1674 1.0000
92.0000 1.0122 1.0000
92.0200 2.1683 1.0000
92.0400 3.1211 1.0000
92.0600 1.0425 1.0000
92.0800 2.0867 1.0000
92.1000 3.5214 1.0000
92.1200 3.2156 1.0000
92.1400 3.0417 1.0000
92.1600 1.4832 1.0000
92.1800 0.0000 1.0000
92.2000 3.2388 1.0000
92.2200 3.1672 1.0000
92.2400 1.1321 1.0000
92.2600 0.0000 1.0000
92.2800 1.0415 1.0000
92.3000 2.0760 1.0000
92.3200 1.0164 1.0000
92.3400 1.0556 1.0000
92.3600 4.2701 1.0000
92.3800 3.1940 1.0000
92.4000 2.1339 1.0000
92.4200 1.0730 1.0000
92.4400 1.0553 1.0000
92.4600 3.1969 1.0000
92.4800 1.0780 1.0000
92.5000 1.0312 1.0000
92.5200 3.1580 1.0000
92.5400 1.0075 1.0000
92.5600 3.1176 1.0000
92.5800 4.1879 1.0000
92.6000 1.0495 1.0000
92.6200 2.0866 1.0000
92.6400 1.0735 1.0000
92.6600 1.0761 1.0000
92.6800 2.0905 1.0000
92.7000 1.0589 1.0000
92.7200 2.0537 1.0000
92.7400 1.0968 1.0000
92.7600 1.0949 1.0000
92.7800 3.1440 1.0000
92.8000 2.0761 1.0000
92.8200 3.0838 1.0000
92.8400 0.0000 1.0000
92.8600 0.0000 1.0000
92.8800 3.1219 1.0000
92.9000 1.0606 1.0000
92.9200 0.0000 1.0000
92.9400 2.1187 1.0000
92.9600 3.2011 1.0000
92.9800 3.3141 1.0000
93.0000 3.0852 1.0000
93.0200 2.1412 1.0000
93.0400 4.1674 1.0000
93.0600 2.4330 1.0000
93.0800 4.2600 1.0000
93.1000 2.1518 1.0000
93.1200 4.3024 1.0000
93.1400 2.0713 1.0000
93.1600 1.0715 1.0000
93.1800 1.0872 1.0000
93.2000 0.0000 1.0000
93.2200 4.1962 1.0000
93.2400 1.0890 1.0000
93.2600 3.0883 1.0000
93.2800 4.2285 1.0000
93.3000 1.1127 1.0000
93.3200 2.0979 1.0000
93.3400 5.2417 1.0000
93.3600 1.1066 1.0000
93.3800 6.3681 1.0000
93.4000 3.1102 1.0000
93.4200 2.1362 1.0000
93.4400 3.2217 1.0000
93.4600 2.1079 1.0000
93.4800 2.1945 1.0000
93.5000 0.0000 1.0000
93.5200 3.1044 1.0000
93.5400 1.0946 1.0000
93.5600 5.2992 1.0000
93.5800 2.0757 1.0000
93.6000 1.0286 1.0000
93.6200 2.1974 1.0000
93.6400 2.1370 1.0000
93.6600 2.0999 1.0000
93.6800 2.0702 1.0000
93.7000 2.0534 1.0000
93.7200 2.0553 1.0000
93.7400 5.6374 1.0000
93.7600 2.0171 1.0000
93.7800 2.0636 1.0000
93.8000 1.1009 1.0000
93.8200 2.1048 1.0000
93.8400 1.0964 1.0000
93.8600 3.1697 1.0000
93.8800 1.4406 1.0000
93.9000 3.0796 1.0000
93.9200 3.0974 1.0000
93.9400 2.1362 1.0000
93.9600 1.0482 1.0000
93.9800 2.0930 1.0000
94.0000 2.0789 1.0000
94.0200 1.0417 1.0000
94.0400 1.0953 1.0000
94.0600 1.0456 1.0000
94.0800 3.1656 1.0000
94.1000 4.2566 1.0000
94.1200 2.1411 1.0000
94.1400 3.1360 1.0000
94.1600 2.0557 1.0000
94.1800 3.2524 1.0000
94.2000 0.0000 1.0000
94.2200 2.1238 1.0000
94.2400 1.0266 1.0000
94.2600 2.0737 1.0000
94.2800 1.0415 1.0000
94.3000 2.0912 1.0000
94.3200 4.2106 1.0000
94.3400 1.0337 1.0000
94.3600 4.1927 1.0000
94.3800 0.0000 1.0000
94.4000 3.1372 1.0000
94.4200 3.2561 1.0000
94.4400 0.0000 1.0000
94.4600 1.0460 1.0000
94.4800 1.0085 1.0000
94.5000 4.2423 1.0000
94.5200 2.2095 1.0000
94.5400 2.0745 1.0000
94.5600 2.0871 1.0000
94.5800 0.0000 1.0000
94.6000 3.2507 1.0000
94.6200 2.0807 1.0000
94.6400 2.0834 1.0000
94.6600 4.1520 1.0000
94.6800 3.1900 1.0000
94.7000 3.0776 1.0000
94.7200 4.1419 1.0000
94.7400 3.0403 1.0000
94.7600 2.0786 1.0000
94.7800 1.0039 1.0000
94.8000 1.0417 1.0000
94.8200 1.0319 1.0000
94.8400 1.0368 1.0000
94.8600 1.0802 1.0000
94.8800 1.0642 1.0000
94.9000 4.2279 1.0000
94.9200 4.2718 1.0000
94.9400 0.0000 1.0000
94.9600 1.0419 1.0000
94.9800 4.1228 1.0000
95.0000 0.0000 1.0000
95.0200 1.0147 1.0000
95.0400 3.4674 1.0000
95.0600 0.0000 1.0000
95.0800 1.0674 1.0000
95.1000 4.3484 1.0000
95.1200 2.4339 1.0000
95.1400 0.0000 1.0000
95.1600 2.0958 1.0000
95.1800 4.2022 1.0000
95.2000 1.0369 1.0000
95.2200 3.1169 1.0000
95.2400 2.2139 1.0000
95.2600 3.1304 1.0000
95.2800 3.0423 1.0000
95.3000 1.4399 1.0000
95.3200 4.1897 1.0000
95.3400 1.0313 1.0000
95.3600 0.0000 1.0000
95.3800 5.3397 1.0000
95.4000 1.0010 1.0000
95.4200 1.0686 1.0000
95.4400 3.2105 1.0000
95.4600 0.0000 1.0000
95.4800 4.4196 1.0000
95.5000 4.2767 1.0000
95.5200 1.0466 1.0000
95.5400 2.0845 1.0000
95.5600 4.2714 1.0000
95.5800 3.1209 1.0000
95.6000 0.0000 1.0000
95.6200 3.2485 1.0000
95.6400 1.0787 1.0000
95.6600 3.0916 1.0000
95.6800 2.0881 1.0000
95.7000 2.1040 1.0000
95.7200 1.0250 1.0000
95.7400 2.1264 1.0000
95.7600 3.1888 1.0000
95.7800 4.1863 1.0000
95.8000 1.0144 1.0000
95.8200 2.0996 1.0000
95.8400 2.1315 1.0000
95.8600 0.0000 1.0000
95.8800 2.1520 1.0000
95.9000 3.2054 1.0000
95.9200 3.2183 1.0000
95.9400 3.1569 1.0000
95.9600 2.0425 1.0000
95.9800 4.3146 1.0000
96.0000 2.1043 1.0000
96.0200 0.0000 1.0000
96.0400 6.3167 1.0000
96.0600 6.2083 1.0000
96.0800 2.1456 1.0000
96.1000 4.3148 1.0000
96.1200 4.2682 1.0000
96.1400 1.0616 1.0000
96.1600 0.9989 1.0000
96.1800 1.0079 1.0000
96.2000 1.4368 1.0000
96.2200 3.1669 1.0000
96.2400 4.1891 1.0000
96.2600 5.2338 1.0000
96.2800 3.1405 1.0000
96.3000 3.1694 1.0000
96.3200 3.1622 1.0000
96.3400 0.0000 1.0000
96.3600 2.0952 1.0000
96.3800 3.2449 1.0000
96.4000 3.1694 1.0000
96.4200 4.2716 1.0000
96.4400 5.3637 1.0000
96.4600 2.1228 1.0000
96.4800 1.0544 1.0000
96.5000 0.0000 1.0000
96.5200 0.0000 1.0000
96.5400 4.2460 1.0000
96.5600 3.1200 1.0000
96.5800 3.1660 1.0000
96.6000 0.0000 1.0000
96.6200 2.0947 1.0000
96.6400 4.2271 1.0000
96.6600 3.1747 1.0000
96.6800 2.1895 1.0000
96.7000 2.1362 1.0000
96.7200 3.2325 1.0000
96.7400 1.0039 1.0000
96.7600 2.1093 1.0000
96.7800 4.1545 1.0000
96.8000 4.2182 1.0000
96.8200 0.0000 1.0000
96.8400 3.2270 1.0000
96.8600 1.0619 1.0000
96.8800 2.0917 1.0000
96.9000 2.2484 1.0000
96.9200 1.0314 1.0000
96.9400 3.1268 1.0000
96.9600 3.1291 1.0000
96.9800 4.1551 1.0000
97.0000 4.1547 1.0000
97.0200 2.4769 1.0000
97.0400 2.0832 1.0000
97.0600 3.1135 1.0000
97.0800 2.1239 1.0000
97.1000 1.0341 1.0000
97.1200 3.1054 1.0000
97.1400 0.0000 1.0000
97.1600 2.1539 1.0000
97.1800 2.0975 1.0000
97.2000 3.1508 1.0000
97.2200 2.0847 1.0000
97.2400 3.1527 1.0000
97.2600 3.1370 1.0000
97.2800 2.0856 1.0000
97.3000 4.2008 1.0000
97.3200 1.0389 1.0000
97.3400 2.1176 1.0000
97.3600 3.5998 1.0000
97.3800 2.0969 1.0000
97.4000 3.2044 1.0000
97.4200 3.1973 1.0000
97.4400 1.0559 1.0000
97.4600 4.1963 1.0000
97.4800 2.1283 1.0000
97.5000 2.1745 1.0000
97.5200 3.1272 1.0000
97.5400 3.1978 1.0000
97.5600 2.0982 1.0000
97.5800 2.1715 1.0000
97.6000 5.3182 1.0000
97.6200 5.3013 1.0000
97.6400 1.0623 1.0000
97.6600 2.1011 1.0000
97.6800 3.1887 1.0000
97.7000 1.0600 1.0000
97.7200 0.0000 1.0000
97.7400 2.1511 1.0000
97.7600 0.0000 1.0000
97.7800 3.2101 1.0000
97.8000 0.0000 1.0000
97.8200 0.0000 1.0000
97.8400 2.1312 1.0000
97.8600 1.0690 1.0000
97.8800 2.0438 1.0000
97.9000 1.0511 1.0000
97.9200 4.2538 1.0000
97.9400 1.0654 1.0000
97.9600 1.0144 1.0000
97.9800 1.0163 1.0000
98.0000 4.1954 1.0000
98.0200 1.0537 1.0000
98.0400 4.1424 1.0000
98.0600 1.0472 1.0000
98.0800 2.4051 1.0000
98.1000 4.2269 1.0000
98.1200 3.1803 1.0000
98.1400 2.1762 1.0000
98.1600 1.0828 1.0000
98.1800 3.4860 1.0000
98.2000 3.0822 1.0000
98.2200 1.0424 1.0000
98.2400 2.2023 1.0000
98.2600 3.1581 1.0000
98.2800 8.9827 1.0000
98.3000 1.0337 1.0000
98.3200 2.2088 1.0000
98.3400 4.3159 1.0000
98.3600 3.1651 1.0000
98.3800 1.0117 1.0000
98.4000 2.1621 1.0000
98.4200 2.1330 1.0000
98.4400 0.0000 1.0000
98.4600 0.0000 1.0000
98.4800 1.0900 1.0000
98.5000 4.1938 1.0000
98.5200 3.0908 1.0000
98.5400 1.0549 1.0000
98.5600 3.0218 1.0000
98.5800 0.0000 1.0000
98.6000 2.1209 1.0000
98.6200 3.1727 1.0000
98.6400 2.1453 1.0000
98.6600 1.0140 1.0000
98.6800 3.3401 1.0000
98.7000 2.0907 1.0000
98.7200 1.0690 1.0000
98.7400 2.0892 1.0000
98.7600 2.0685 1.0000
98.7800 2.0870 1.0000
98.8000 4.2152 1.0000
98.8200 1.0226 1.0000
98.8400 1.0505 1.0000
98.8600 6.3452 1.0000
98.8800 1.0298 1.0000
98.9000 0.0000 1.0000
98.9200 3.2050 1.0000
98.9400 1.0434 1.0000
98.9600 2.1022 1.0000
98.9800 1.0463 1.0000
99.0000 2.0809 1.0000
99.0200 0.0000 1.0000
99.0400 2.1547 1.0000
99.0600 3.0905 1.0000
99.0800 3.2519 1.0000
99.1000 3.2177 1.0000
99.1200 3.1553 1.0000
99.1400 2.1566 1.0000
99.1600 0.0000 1.0000
99.1800 2.0555 1.0000
99.2000 3.1170 1.0000
99.2200 1.0394 1.0000
99.2400 3.0996 1.0000
99.2600 3.2456 1.0000
99.2800 2.0972 1.0000
99.3000 5.5996 1.0000
99.3200 2.1309 1.0000
99.3400 4.3567 1.0000
99.3600 3.1774 1.0000
99.3800 2.0843 1.0000
99.4000 4.2772 1.0000
99.4200 1.0557 1.0000
99.4400 5.6552 1.0000
99.4600 1.0133 1.0000
99.4800 2.1000 1.0000
99.5000 1.1162 1.0000
99.5200 4.2267 1.0000
99.5400 2.1138 1.0000
99.5600 1.0164 1.0000
99.5800 1.0928 1.0000
99.6000 2.1207 1.0000
99.6200 2.0285 1.0000
99.6400 2.1144 1.0000
99.6600 0.0000 1.0000
99.6800 2.0930 1.0000
99.7000 2.0615 1.0000
99.7200 2.0895 1.0000
99.7400 0.0000 1.0000
99.7600 0.0000 1.0000
99.7800 2.0752 1.0000
99.8000 3.1276 1.0000
99.8200 3.1453 1.0000
99.8400 0.0000 1.0000
99.8600 2.0625 1.0000
99.8800 2.0848 1.0000
99.9000 2.0895 1.0000
99.9200 1.0309 1.0000
99.9400 2.1402 1.0000
99.9600 0.0000 1.0000
99.9800 1.0459 1.0000
100.0000 2.1602 1.0000
*RAS_INT_END
*RAS_DATA_END
*DSC_DATA_END
